			Data Report


Test Item:1.12.2   Test Times:5
Test Date:2018-1-12 
Channel 1:
Range:100[N],Up.:0.00,Low.:100.00,Com.:100.00,Sense.:0.00,GravityAcceleration:9.800
Time[s]	Channel 1 [N]	
46.56	0.00
0.09	0.00
0.25	0.00
0.30	0.00
0.45	0.00
0.55	0.00
0.59	0.00
0.75	0.00
0.80	0.00
0.94	0.00
1.05	0.00
1.09	0.00
1.23	0.00
1.34	0.00
1.39	0.00
1.48	0.00
1.64	0.00
1.69	0.00
1.78	0.00
1.89	0.00
2.05	0.00
2.14	0.00
2.23	0.00
2.34	0.00
2.39	0.00
2.48	0.00
2.58	0.00
2.69	0.00
2.78	0.00
2.89	0.00
2.98	0.00
3.14	0.00
3.19	0.00
3.34	0.00
3.38	0.00
3.48	0.00
3.64	0.00
3.73	-7.44
3.78	-14.72
3.94	-14.72
4.03	-18.00
4.08	-16.26
4.23	-16.26
4.33	-13.53
4.38	-13.31
4.48	-13.31
4.58	-13.13
4.73	-12.80
4.83	-12.56
4.88	-12.30
4.98	-12.30
5.08	-12.18
5.17	-12.14
5.33	-11.99
5.44	-11.88
5.48	-11.83
5.63	-11.83
5.67	-11.96
5.77	-11.96
5.94	-12.04
6.03	-11.71
6.13	-11.62
6.17	-11.00
6.27	-11.00
6.38	-10.83
6.53	-10.86
6.63	-11.23
6.67	-11.36
6.77	-11.36
6.88	-11.40
6.97	-11.53
7.13	-11.20
7.22	-11.21
7.27	-10.96
7.42	-10.96
7.52	-11.07
7.56	-11.03
7.67	-11.03
7.77	-13.51
7.92	-18.83
7.97	-20.46
8.06	-20.46
8.17	-19.51
8.33	-19.23
8.42	-20.42
8.47	-20.69
8.63	-20.69
8.72	-19.60
8.77	-18.72
8.92	-18.72
9.02	-17.84
9.06	-17.88
9.17	-17.88
9.33	-17.74
9.42	-17.60
9.47	-17.43
9.63	-17.43
9.72	-17.45
9.77	-17.45
9.86	-17.45
9.97	-17.37
10.06	-17.32
10.16	-17.15
10.31	-17.13
10.36	-17.23
10.47	-17.23
10.56	-17.46
10.72	-17.14
10.81	-17.23
10.91	-13.42
10.97	-9.40
11.06	-9.40
11.22	-9.17
11.25	-11.36
11.36	-11.36
11.52	-11.85
11.56	-11.80
11.66	-11.80
11.75	-10.87
11.86	-10.29
12.02	-10.37
12.11	-10.77
12.16	-11.00
12.25	-11.00
12.36	-11.00
12.45	-11.18
12.55	-11.10
12.72	-11.02
12.75	-9.98
12.86	-9.98
12.95	-10.23
13.05	-10.38
13.20	-10.43
13.31	-10.65
13.36	-10.70
13.45	-10.70
13.55	-10.85
13.70	-11.01
13.75	-11.00
13.86	-11.00
14.00	-11.05
14.11	-10.69
14.20	-9.66
14.31	-2.65
14.34	0.00
14.45	0.00
14.55	0.00
14.66	0.00
14.75	0.00
14.91	0.00
14.95	0.00
15.11	0.00
15.20	0.00
15.25	0.00
15.41	0.00
15.50	0.00
15.55	0.00
15.64	0.00
15.75	0.00
15.84	0.00
16.00	0.00
16.11	0.00
16.14	0.00
16.25	0.00
16.41	-1.24
16.44	-8.23
16.55	-8.23
16.70	-13.25
16.75	-11.85
16.89	-11.85
17.00	-12.53
17.05	-14.57
17.20	-14.57
17.23	-14.93
17.34	-14.93
17.50	-13.57
17.55	-12.89
17.64	-12.89
17.73	-12.11
17.89	-11.55
18.00	-11.73
18.05	-11.84
18.14	-11.84
18.23	-11.99
18.34	-12.25
18.50	-12.46
18.59	-12.58
18.64	-12.36
18.80	-12.36
18.84	-12.21
18.94	-12.21
19.09	-12.07
19.14	-11.89
19.23	-11.89
19.33	-11.96
19.48	-12.15
19.53	-12.18
19.64	-12.18
19.73	-12.16
19.83	-12.30
19.94	-13.34
20.03	-17.36
20.14	-18.68
20.23	-19.01
20.33	-20.07
20.44	-21.08
20.53	-22.14
20.63	-22.25
20.73	-22.68
20.89	-23.21
20.94	-20.11
21.03	-20.11
21.13	-19.33
21.23	-19.00
21.33	-18.75
21.44	-18.81
21.53	-18.87
21.69	-19.42
21.78	-19.19
21.83	-19.08
21.94	-19.08
22.09	-19.00
22.13	-18.66
22.23	-18.66
22.33	-18.92
22.42	-19.23
22.53	-19.51
22.69	-19.79
22.73	-19.83
22.88	-19.83
22.92	-19.57
23.08	-19.57
23.13	-19.25
23.23	-19.25
23.33	-18.95
23.48	-18.84
23.53	-19.14
23.67	-19.14
23.72	-19.55
23.88	-19.55
23.98	-20.37
24.02	-21.36
24.13	-21.36
24.22	-21.42
24.33	-21.36
24.48	-21.15
24.52	-20.78
24.69	-20.78
24.72	-20.42
24.88	-20.42
24.92	-19.96
25.08	-19.96
25.13	-13.07
25.28	-13.07
25.38	-11.65
25.42	-12.82
25.58	-12.82
25.67	-14.08
25.72	-13.47
25.83	-13.47
25.97	-12.62
26.06	-11.84
26.17	-12.20
26.27	-12.01
26.31	-11.48
26.42	-11.48
26.52	-11.16
26.67	-10.62
26.77	-10.78
26.81	-11.20
26.92	-11.20
27.08	-11.34
27.11	-11.34
27.27	-11.34
27.31	-11.52
27.42	-11.52
27.52	-11.54
27.67	-11.54
27.77	-11.33
27.81	-11.37
27.92	-11.37
28.08	-11.58
28.11	-11.59
28.27	-11.59
28.38	-11.54
28.41	-11.25
28.52	-11.25
28.61	-10.67
28.77	-10.55
28.81	-9.06
28.91	-9.06
29.02	-5.17
29.16	-3.76
29.27	0.00
29.36	0.00
29.41	0.00
29.50	0.00
29.61	0.00
29.70	0.00
29.81	0.00
29.91	0.00
30.02	0.00
30.11	0.00
30.20	0.00
30.36	0.00
30.41	0.00
30.50	0.00
30.61	0.00
30.70	0.00
30.81	0.00
30.97	0.00
31.00	0.00
31.16	0.00
31.27	0.00
31.30	0.00
31.47	0.00
31.56	0.00
31.61	0.00
31.70	0.00
31.80	0.00
31.91	0.00
32.00	0.00
32.16	0.00
32.20	0.00
32.30	0.00
32.45	0.00
32.50	0.00
32.59	0.00
32.70	0.00
32.80	0.00
32.95	0.00
33.06	0.00
33.09	0.00
33.20	0.00
33.30	0.00
33.41	0.00
33.50	0.00
33.59	0.00
33.75	0.00
33.80	0.00
33.95	0.00
34.06	0.00
34.09	0.00
34.19	0.00
34.36	0.00
34.39	0.00
34.50	0.00
34.59	0.00
34.75	0.00
34.80	0.00
34.89	0.00
35.06	0.00
35.09	0.00
35.19	0.00
35.30	0.00
35.44	0.00
35.48	0.00
35.59	0.00
35.69	0.00
35.80	0.00
35.89	0.00
35.98	0.00
36.09	0.00
36.19	0.00
36.34	0.00
36.45	0.00
36.48	0.00
36.59	0.00
36.75	0.00
36.80	0.00
36.89	0.00
36.98	0.00
37.09	0.00
37.25	0.00

Channel 1: Max.=0.00[N],Min.=-23.21[N],Avg.=8.96[N]
