			Data Report


Test Item:1.15.1   Test Times:1
Test Date:2018-1-11 
Channel 1:
Range:100[N],Up.:0.00,Low.:100.00,Com.:100.00,Sense.:0.00,GravityAcceleration:9.800
Time[s]	Channel 1 [N]	
0.05	0.00
0.09	0.00
0.25	0.00
0.34	0.00
0.39	0.00
0.48	0.00
0.59	0.00
0.75	0.00
0.80	0.00
0.94	0.00
0.98	0.00
1.14	0.00
1.25	0.00
1.28	0.00
1.39	0.00
1.48	0.00
1.64	0.00
1.69	0.00
1.84	0.00
1.89	0.00
1.98	0.00
2.09	0.00
2.19	0.00
2.34	0.00
2.44	0.00
2.48	0.00
2.64	0.00
2.69	0.00
2.84	0.00
2.94	0.00
2.98	0.00
3.14	0.00
3.23	0.00
3.28	0.00
3.38	0.00
3.48	0.00
3.64	0.00
3.69	0.00
3.78	0.00
3.88	0.00
4.03	0.00
4.14	0.00
4.23	0.00
4.28	0.00
4.38	0.00
4.48	0.00
4.64	0.00
4.73	0.00
4.78	0.00
4.94	0.00
5.03	0.00
5.14	0.00
5.17	0.00
5.28	0.00
5.38	0.00
5.53	0.00
5.58	0.00
5.67	0.00
5.78	0.00
5.88	0.00
6.03	0.00
6.08	0.00
6.17	0.00
6.33	0.00
6.38	0.00
6.47	0.00
6.63	0.00
6.67	0.00
6.83	0.00
6.88	0.00
6.97	0.00
7.08	0.00
7.23	0.00
7.27	0.00
7.42	0.00
7.53	0.00
7.58	0.00
7.73	0.00
7.77	0.00
7.88	0.00
8.03	0.00
8.06	0.00
8.17	0.00
8.27	0.00
8.38	0.00
8.47	0.00
8.56	0.00
8.67	0.00
8.77	0.00
8.92	0.00
8.97	0.00
9.13	0.00
9.22	0.00
9.27	0.00
9.36	0.00
9.47	0.00
9.63	0.00
9.67	0.00
9.77	0.00
9.92	0.00
9.97	0.00
10.06	0.00
10.22	0.00
10.27	0.00
10.36	0.00
10.47	0.00
10.56	0.00
10.66	0.00
10.77	0.00
10.92	0.00
11.02	0.00
11.06	0.00
11.16	0.00
11.27	0.00
11.36	0.00
11.45	0.00
11.61	0.00
11.66	0.00
11.77	0.00
11.86	0.00
11.95	0.00
12.11	-1.41
12.20	-3.30
12.25	-4.35
12.41	-4.35
12.52	-6.39
12.56	-7.41
12.70	-7.41
12.81	-8.80
12.86	-9.92
12.95	-9.92
13.11	-10.30
13.16	-10.59
13.25	-10.59
13.41	-10.82
13.45	-10.95
13.61	-10.95
13.70	-11.21
13.75	-11.07
13.86	-11.07
14.02	-10.64
14.05	-10.40
14.20	-10.40
14.25	-10.01
14.41	-10.01
14.45	-10.01
14.61	-10.01
14.66	-9.97
14.75	-9.97
14.84	-10.11
15.00	-10.04
15.09	-10.24
15.20	-10.32
15.25	-10.22
15.34	-10.22
15.45	-10.19
15.55	-10.28
15.70	-10.29
15.75	-10.37
15.91	-10.37
16.00	-10.30
16.05	-10.13
16.14	-10.13
16.30	-10.21
16.41	-10.23
16.44	-10.10
16.55	-10.10
16.64	-10.00
16.80	-9.84
16.91	-9.77
16.94	-9.68
17.05	-9.68
17.20	-9.82
17.23	-12.99
17.34	-12.99
17.44	-16.86
17.55	-17.59
17.64	-18.26
17.80	-18.80
17.84	-18.98
17.94	-18.98
18.05	-19.17
18.14	-19.06
18.23	-18.39
18.39	-17.97
18.44	-17.71
18.53	-17.71
18.64	-17.68
18.80	-17.32
18.89	-16.57
19.00	-16.53
19.03	-16.60
19.14	-16.60
19.23	-16.17
19.33	-15.47
19.44	-15.23
19.53	-14.92
19.64	-14.33
19.73	-14.16
19.83	-14.06
20.00	-13.74
20.09	-13.50
20.19	-13.92
20.23	-13.82
20.33	-13.82
20.44	-13.72
20.53	-13.09
20.63	-12.67
20.73	-12.40
20.89	-12.01
20.98	-11.71
21.03	-11.91
21.19	-11.91
21.23	-12.32
21.33	-12.32
21.48	-13.22
21.53	-13.20
21.63	-13.20
21.73	-13.59
21.89	-14.42
21.92	-16.52
22.08	-16.52
22.19	-17.20
22.23	-17.47
22.39	-17.47
22.42	-17.36
22.53	-17.36
22.69	-17.93
22.72	-17.65
22.89	-17.65
22.98	-18.53
23.03	-18.50
23.13	-18.50
23.22	-18.27
23.33	-18.25
23.47	-18.34
23.58	-18.63
23.63	-18.31
23.72	-18.31
23.88	-17.40
23.92	-16.89
24.02	-16.89
24.17	-16.69
24.22	-16.33
24.38	-16.33
24.47	-17.33
24.52	-17.50
24.63	-17.50
24.78	-17.72
24.81	-17.38
24.97	-17.38
25.02	-16.57
25.13	-16.57
25.22	-16.80
25.31	-17.18
25.47	-17.16
25.52	-18.33
25.67	-18.33
25.72	-18.47
25.88	-18.47
25.97	-18.12
26.02	-18.10
26.11	-18.10
26.22	-18.28
26.31	-18.40
26.42	-18.27
26.56	-17.48
26.61	-17.60
26.77	-17.60
26.86	-17.19
26.91	-17.20
27.02	-17.20
27.11	-17.26
27.27	-17.14
27.31	-17.02
27.47	-17.02
27.52	-16.76
27.67	-16.76
27.77	-16.71
27.81	-16.69
27.91	-16.69
28.06	-16.80
28.11	-17.19
28.27	-17.19
28.31	-17.36
28.41	-17.36
28.52	-17.68
28.61	-17.89
28.70	-18.13
28.86	-18.48
28.95	-18.38
29.00	-18.67
29.11	-18.67
29.20	-18.36
29.31	-18.46
29.45	-18.56
29.56	-18.60
29.61	-18.75
29.77	-18.75
29.81	-18.52
29.91	-18.52
30.00	-18.46
30.11	-18.33
30.27	-18.45
30.36	-18.77
30.41	-18.62
30.50	-18.62
30.61	-18.70
30.77	-18.49
30.80	-18.52
30.95	-18.52
31.00	-18.54
31.16	-18.54
31.27	-18.45
31.30	-18.64
31.41	-18.64
31.50	-18.86
31.66	-19.46
31.77	-20.92
31.84	-20.52
31.89	-17.28
32.00	-17.28
32.16	-13.43
32.20	-10.10
32.34	-10.10
32.45	-8.55
32.50	-9.00
32.66	-9.00
32.70	-9.90
32.80	-9.90
32.89	-10.07
33.00	-10.12
33.09	-9.93
33.19	-9.70
33.30	-9.26
33.45	-9.08
33.55	-8.54
33.59	-8.61
33.75	-8.61
33.84	-8.41
33.89	-8.55
34.05	-8.55
34.16	-8.47
34.25	-8.27
34.30	-8.26
34.45	-8.26
34.48	-8.22
34.66	-8.22
34.73	-9.08
34.80	-9.37
34.94	-9.37
35.05	-9.17
35.09	-9.21
35.23	-9.21
35.28	-9.44
35.44	-9.44
35.55	-9.68
35.59	-9.57
35.73	-9.57
35.84	-9.50
35.94	-9.14
35.98	-9.16
36.14	-9.16
36.23	-9.19
36.28	-9.38
36.44	-9.38
36.48	-12.91
36.64	-12.91
36.73	-18.56
36.78	-19.13
36.89	-19.13
36.98	-20.36
37.08	-23.03
37.23	-23.51
37.34	-21.05
37.38	-19.78
37.48	-19.78
37.58	-18.96
37.73	-18.31
37.78	-17.90
37.88	-17.90
37.98	-17.41
38.13	-16.93
38.23	-16.10
38.28	-17.32
38.38	-17.32
38.48	-17.65
38.58	-18.08
38.67	-19.24
38.83	-20.34
38.88	-20.75
38.98	-20.75
39.13	-19.86
39.17	-19.00
39.28	-19.00
39.38	-18.51
39.47	-18.12
39.58	-17.45
39.73	-16.83
39.78	-17.51
39.88	-17.51
39.97	-18.01
40.08	-17.94
40.17	-18.16
40.28	-17.85
40.44	-17.60
40.53	-17.83
40.58	-17.77
40.72	-17.77
40.83	-18.09
40.88	-18.18
40.97	-18.18
41.13	-18.21
41.17	-18.32
41.27	-18.32
41.38	-18.75
41.47	-18.90
41.63	-18.82
41.67	-18.36
41.83	-18.36
41.88	-17.78
41.97	-17.78
42.13	-18.15
42.17	-24.00
42.33	-24.00
42.38	-28.72
42.47	-28.72
42.63	-30.04
42.67	-30.01
42.83	-30.01
42.92	-31.68
43.03	-31.82
43.06	-30.94
43.22	-30.94
43.33	-35.33
43.36	-35.64
43.47	-35.64
43.56	-35.25
43.66	-36.16
43.77	-37.05
43.86	-37.07
44.02	-36.58
44.11	-37.07
44.16	-38.15
44.27	-38.15
44.36	-37.70
44.52	-36.99
44.56	-36.83
44.66	-36.83
44.77	-36.30
44.86	-34.97
45.02	-33.59
45.06	-31.13
45.16	-31.13
45.27	-30.92
45.36	-30.42
45.45	-30.83
45.61	-31.32
45.72	-30.71
45.75	-31.07
45.86	-31.07
45.95	-36.08
46.06	-38.97
46.16	-39.54
46.31	-39.71
46.36	-39.84
46.45	-39.84
46.61	-38.11
46.66	-36.24
46.81	-36.24
46.91	-37.22
46.95	-37.11
47.05	-37.11
47.20	-36.98
47.25	-36.50
47.36	-36.50
47.50	-35.90
47.55	-34.47
47.66	-34.47
47.75	-33.51
47.91	-33.34
47.95	-32.67
48.11	-32.67
48.16	-31.71
48.25	-31.71
48.34	-30.75
48.45	-31.41
48.55	-31.92
48.70	-32.66
48.75	-36.79
48.84	-36.79
49.00	-37.50
49.05	-37.57
49.14	-37.57
49.31	-38.76
49.41	-39.47
49.45	-39.22
49.55	-39.22
49.70	-39.62
49.75	-38.67
49.91	-38.67
49.95	-40.28
50.05	-40.28
50.14	-40.69
50.25	-40.71
50.34	-39.74
50.44	-38.78
50.55	-39.23
50.70	-38.11
50.80	-36.88
50.84	-36.47
50.94	-36.47
51.05	-35.71
51.20	-35.86
51.23	-34.71
51.34	-34.71
51.44	-34.88
51.59	-34.39
51.70	-33.63
51.73	-33.03
51.84	-33.03
51.94	-32.64
52.05	-32.25
52.14	-31.69
52.30	-31.26
52.34	-30.03
52.44	-30.03
52.53	-30.28
52.64	-29.90
52.73	-30.06
52.84	-29.77
52.98	-29.68
53.09	-29.97
53.19	-29.57
53.23	-29.51
53.39	-29.51
53.48	-29.71
53.53	-29.67
53.64	-29.67
53.80	-29.59
53.89	-29.28
53.94	-29.16
54.03	-29.16
54.14	-31.07
54.23	-33.46
54.39	-34.64
54.48	-35.30
54.53	-35.68
54.63	-35.68
54.73	-35.81
54.83	-35.78
54.94	-36.11
55.09	-36.11
55.13	-35.54
55.30	-35.54
55.33	-34.68
55.48	-34.68
55.53	-34.92
55.63	-34.92
55.78	-34.89
55.83	-35.61
55.92	-35.61
56.03	-35.55
56.13	-35.64
56.23	-35.25
56.33	-35.65
56.42	-37.91
56.53	-39.78
56.69	-39.76
56.72	-41.91
56.88	-41.91
56.92	-39.54
57.03	-39.54
57.13	-37.57
57.22	-35.83
57.38	-34.72
57.48	-34.57
57.53	-33.55
57.69	-33.55
57.78	-29.96
57.83	-29.61
57.92	-29.61
58.08	-28.76
58.13	-27.61
58.28	-27.61
58.38	-25.66
58.42	-24.44
58.52	-24.44
58.67	-24.57
58.72	-24.79
58.83	-24.79
58.97	-24.06
59.02	-22.93
59.17	-22.93
59.27	-19.25
59.31	-18.20
59.42	-18.20
59.58	-16.92
59.63	-14.13
59.72	-14.13
59.81	-11.47
59.97	-8.42
60.02	-9.47
60.11	-9.47
60.22	-9.84
60.31	-10.59
60.42	-13.09
60.58	-13.61
60.61	-12.71
60.77	-12.71
60.81	-13.41
60.92	-13.41
61.08	-13.88
61.11	-13.48
61.22	-13.48
61.38	-12.93
61.41	-11.87
61.52	-11.87
61.66	-11.25
61.72	-9.84
61.86	-9.84
61.97	-7.76
62.02	-4.95
62.16	-4.95
62.27	0.00
62.36	0.00
62.41	0.00
62.52	0.00
62.61	-3.74
62.77	0.00
62.81	0.00
62.91	0.00
63.06	-3.55
63.16	-7.96
63.20	-10.56
63.36	-10.56
63.47	-12.46
63.50	-17.47
63.61	-17.47
63.70	-20.18
63.81	-19.77
63.91	-20.33
64.00	-20.59
64.11	-21.07
64.27	-23.20
64.31	-26.75
64.47	-26.75
64.50	-20.34
64.61	-20.34
64.75	-18.74
64.80	-17.44
64.91	-17.44
65.00	-17.11
65.11	-19.79
65.25	-22.09
65.30	-21.85
65.45	-21.85
65.56	-21.25
65.59	-20.67
65.70	-20.67
65.80	-20.17
65.91	-19.56
66.06	-19.50
66.09	-19.36
66.20	-19.36
66.30	-19.02
66.41	-18.81
66.50	-19.28
66.59	-20.68
66.70	-19.50
66.80	-18.23
66.89	-15.61
67.05	-18.04
67.16	-19.13
67.20	-19.05
67.30	-19.05
67.39	-22.77
67.50	-23.43
67.59	-24.23
67.70	-17.44
67.84	2.43
67.95	0.00
68.05	0.00
68.09	0.00
68.25	0.00
68.34	0.00
68.39	0.00
68.50	0.00
68.64	0.00
68.69	-8.00
68.84	-8.00
68.95	-19.45
68.98	-20.26
69.09	-20.26
69.19	-22.08
69.34	-22.06
69.45	-22.17
69.48	-22.23
69.64	-22.23
69.75	-20.32
69.80	-19.95
69.89	-19.95
70.05	-19.67
70.09	-19.31
70.19	-19.31
70.28	-15.35
70.39	-8.50
70.48	-2.80
70.64	0.00
70.69	0.00
70.84	0.00
70.94	0.00
71.03	0.00
71.08	0.00
71.19	0.00
71.34	0.00
71.39	0.00
71.53	0.00
71.58	0.00
71.69	0.00
71.84	0.00
71.89	0.00
71.98	0.00
72.14	0.00
72.19	0.00
72.34	0.00
72.38	0.00
72.53	0.00
72.58	0.00
72.69	0.00
72.84	0.00
72.88	0.00
73.03	0.00
73.14	0.00
73.17	0.00
73.28	0.00
73.38	0.00
73.48	0.00
73.64	0.00
73.73	0.00
73.78	0.00
73.88	0.00
74.03	0.00
74.08	0.00
74.17	0.00
74.33	0.00
74.38	0.00
74.53	0.00
74.63	0.00
74.67	0.00
74.78	0.00
74.92	0.00
75.03	0.00
75.08	0.00
75.23	0.00
75.28	0.00
75.38	0.00
75.53	0.00
75.58	0.00
75.73	0.00
75.83	0.00
75.88	0.00
76.03	0.00
76.13	0.00
76.17	0.00
76.33	0.00
76.38	0.00
76.53	0.00
76.56	0.00

Channel 1: Max.=2.43[N],Min.=-41.91[N],Avg.=15.47[N]
