			Data Report


Test Item:1.9.1.1   Test Times:1
Test Date:2018-1-9 
Channel 1:
Range:100[N],Up.:0.00,Low.:100.00,Com.:100.00,Sense.:0.00,GravityAcceleration:9.800
Time[s]	Channel 1 [N]	
34.53	0.00
34.58	0.00
0.05	0.00
0.16	0.00
0.30	0.00
0.41	0.00
0.45	0.00
0.61	0.00
0.70	0.00
0.75	0.00
0.91	0.00
1.02	0.00
1.05	0.00
1.14	0.00
1.25	0.00
1.34	0.00
1.45	0.00
1.55	0.00
1.70	0.00
1.81	0.00
1.91	0.00
1.95	0.00
2.05	0.00
2.14	0.00
2.25	0.00
2.34	0.00
2.45	0.00
2.55	0.00
2.64	0.00
2.80	0.00
2.84	0.00
2.95	0.00
3.05	0.00
3.20	0.00
3.25	0.00
3.34	0.00
3.44	0.00
3.59	0.00
3.70	0.00
3.75	0.00
3.91	0.00
4.00	0.00
4.05	0.00
4.14	0.00
4.25	0.00
4.41	0.00
4.44	0.00
4.59	0.00
4.64	0.00
4.74	0.00
4.83	0.00
4.99	0.00
5.05	0.00
5.14	0.00
5.24	0.00
5.39	0.00
5.49	0.00
5.59	0.00
5.64	0.00
5.80	0.00
5.84	0.00
5.94	0.00
6.03	0.00
6.14	0.00
6.30	0.00
6.39	0.00
6.44	0.00
6.53	0.00
6.69	0.00
6.80	0.00
6.83	0.00
6.94	0.00
7.03	0.00
7.19	0.00
7.24	0.00
7.39	0.00
7.44	0.00
7.53	0.00
7.69	0.00
7.74	0.00
7.89	0.00
7.99	0.00
8.03	0.00
8.19	0.00
8.23	0.00
8.39	0.00
8.48	0.00
8.53	0.00
8.69	0.00
8.78	0.00
8.83	0.00
8.92	0.00
9.08	0.00
9.13	-1.12
9.23	-1.12
9.38	-5.66
9.42	-12.28
9.53	-12.28
9.69	-14.25
9.72	-17.98
9.83	-17.98
9.98	-19.90
10.03	-21.28
10.17	-21.28
10.28	-24.74
10.33	-25.23
10.48	-25.23
10.58	-12.94
10.63	-7.65
10.78	-7.65
10.89	-3.78
10.98	-2.72
11.03	-2.07
11.13	-2.07
11.28	-1.59
11.33	0.00
11.42	0.00
11.52	0.00
11.63	0.00
11.72	0.00
11.88	0.00
11.91	0.00
12.08	0.00
12.17	0.00
12.22	0.00
12.38	0.00
12.47	0.00
12.52	0.00
12.61	0.00
12.72	0.00
12.81	0.00
12.92	0.00
13.02	0.00
13.17	-2.69
13.22	-12.83
13.38	-12.83
13.42	-17.31
13.58	-17.31
13.67	-19.37
13.72	-19.54
13.88	-19.54
13.97	-22.32
14.02	-23.77
14.11	-23.77
14.22	-25.05
14.31	-25.13
14.42	-25.11
14.56	-25.38
14.61	-26.05
14.72	-26.05
14.81	-18.38
14.91	-6.03
15.02	-1.42
15.11	0.00
15.22	0.00
15.36	0.00
15.41	0.00
15.52	0.00
15.66	0.00
15.70	0.00
15.81	0.00
15.91	0.00
16.06	-1.03
16.16	-10.72
16.20	-17.01
16.31	-17.01
16.41	-22.54
16.56	-24.18
16.66	-26.68
16.77	-28.43
16.81	-29.80
16.91	-29.80
17.06	-30.40
17.11	-31.07
17.20	-31.07
17.31	-31.00
17.45	-31.57
17.56	-30.62
17.61	-27.32
17.75	-27.32
17.81	-24.53
17.91	-24.53
18.06	-18.17
18.09	-13.70
18.25	-13.70
18.30	-4.50
18.39	-4.50
18.50	-2.21
18.66	0.00
18.69	0.00
18.80	0.00
18.91	0.00
19.06	0.00
19.16	0.00
19.19	0.00
19.30	0.00
19.45	0.00
19.50	0.00
19.66	0.00
19.75	-5.52
19.80	-11.69
19.91	-11.69
20.06	-21.16
20.09	-27.28
20.19	-27.28
20.34	-28.04
20.39	-28.56
20.55	-28.56
20.64	-31.12
20.69	-32.29
20.84	-32.29
20.95	-33.57
21.00	-33.63
21.09	-33.63
21.24	-33.43
21.30	-33.70
21.39	-33.70
21.50	-32.88
21.59	-26.80
21.69	-10.46
21.84	0.00
21.89	0.00
22.00	0.00
22.09	0.00
22.25	0.00
22.30	0.00
22.45	0.00
22.49	0.00
22.64	0.00
22.74	0.00
22.84	0.00
22.89	-1.04
22.99	-1.04
23.09	-7.53
23.25	-17.56
23.34	-27.50
23.39	-29.70
23.53	-29.70
23.64	-29.60
23.69	-30.26
23.78	-30.26
23.94	-32.20
23.99	-33.30
24.14	-33.30
24.24	-39.89
24.28	-43.09
24.39	-43.09
24.49	-46.52
24.58	-46.99
24.69	-45.20
24.84	-43.03
24.88	-33.75
25.05	-33.75
25.14	-12.38
25.17	-4.53
25.34	-4.53
25.44	0.00
25.49	0.00
25.58	0.00
25.69	0.00
25.78	0.00
25.94	0.00
26.05	0.00
26.14	0.00
26.17	0.00
26.28	0.00
26.38	0.00
26.49	-4.61
26.63	-13.69
26.67	-24.34
26.78	-24.34
26.94	-29.26
26.99	-32.83
27.08	-32.83
27.24	-34.50
27.27	-35.40
27.42	-35.40
27.49	-35.11
27.56	-35.11
27.67	-34.24
27.83	-33.55
27.88	-32.54
27.97	-32.54
28.13	-32.09
28.17	-31.87
28.27	-31.87
28.38	-31.67
28.53	-31.05
28.58	-29.23
28.74	-29.23
28.77	-25.50
28.88	-25.50
29.03	-24.73
29.08	-19.76
29.22	-19.76
29.33	0.00
29.38	0.00
29.52	0.00
29.63	0.00
29.67	0.00
29.83	0.00
29.92	0.00
29.97	0.00
30.13	0.00
30.22	0.00
30.27	-1.37
30.38	-1.37
30.47	-9.35
30.56	-15.71
30.67	-19.42
30.81	-20.17
30.86	-23.31
31.02	-23.31
31.13	-29.07
31.17	-29.61
31.27	-29.61
31.36	-28.96
31.52	-28.00
31.56	-26.91
31.66	-26.91
31.75	-26.64
31.86	-26.66
32.02	-26.58
32.06	-26.24
32.16	-26.24
32.25	-26.20
32.36	-26.00
32.52	-25.74
32.61	-25.19
32.66	-24.49
32.75	-24.49
32.92	-23.14
32.95	-19.29
33.11	-19.29
33.16	-18.22
33.31	-18.22
33.41	-18.82
33.45	-19.11
33.56	-19.11
33.72	-18.68
33.81	-18.51
33.86	-18.59
34.02	-18.59
34.11	-19.30
34.16	-19.44
34.25	-19.44
34.42	-19.25
34.52	-18.92
34.56	-16.34
34.66	-16.34
34.75	1.92
34.92	1.16
35.02	0.00
35.06	0.00
35.16	0.00
35.25	0.00
35.36	0.00
35.45	0.00
35.55	0.00
35.66	0.00
35.75	-6.98
35.91	-14.53
35.95	-21.04
36.11	-21.04
36.16	-24.12
36.25	-24.12
36.36	-25.46
36.50	-26.40
36.61	-26.45
36.66	-25.97
36.75	-25.97
36.91	-25.59
36.95	-25.37
37.09	-25.37
37.20	-24.69
37.25	-24.31
37.34	-24.31
37.44	-23.53
37.59	-22.43
37.70	-22.67
37.80	-22.59
37.84	-22.26
38.00	-22.26
38.09	-21.76
38.14	-21.95
38.25	-21.95
38.34	-22.85
38.50	-23.21
38.55	-22.76
38.69	-22.76
38.75	-22.35
38.84	-22.35
38.94	-21.46
39.09	-20.84
39.14	-18.60
39.24	-18.60
39.39	1.65
39.44	0.00
39.59	0.00
39.70	0.00
39.74	0.00
39.89	0.00
40.00	0.00
40.03	0.00
40.20	0.00
40.24	0.00
40.33	0.00
40.50	0.00
40.59	0.00
40.64	0.00
40.74	0.00
40.89	0.00
40.94	0.00
41.03	0.00
41.14	0.00
41.24	0.00
41.34	0.00
41.44	0.00
41.59	0.00
41.69	0.00
41.74	0.00
41.83	0.00
41.99	0.00
42.03	0.00
42.14	0.00
42.28	0.00
42.33	0.00
42.49	0.00
42.53	0.00
42.69	0.00
42.74	0.00
42.89	0.00
42.99	0.00
43.03	0.00
43.13	0.00
43.24	0.00
43.39	0.00
43.42	0.00
43.53	0.00
43.63	0.00
43.78	0.00
43.83	0.00
43.99	0.00
44.09	0.00
44.19	0.00
44.24	0.00
44.33	0.00
44.42	0.00
44.58	0.00
44.67	0.00
44.78	0.00
44.83	0.00
44.92	0.00

Channel 1: Max.=1.92[N],Min.=-46.99[N],Avg.=11.07[N]
