			Data Report


Test Item:1.15.8   Test Times:2
Test Date:2018-1-12 
Channel 1:
Range:100[N],Up.:0.00,Low.:100.00,Com.:100.00,Sense.:0.00,GravityAcceleration:9.800
Time[s]	Channel 1 [N]	
0.08	0.00
0.17	0.00
0.33	0.00
0.38	0.00
0.53	0.00
0.63	0.00
0.67	0.00
0.78	0.00
0.94	0.00
0.97	0.00
1.08	0.00
1.17	0.00
1.33	0.00
1.38	0.00
1.47	0.00
1.63	0.00
1.67	0.00
1.77	0.00
1.94	0.00
2.03	0.00
2.08	0.00
2.17	0.00
2.27	0.00
2.42	0.00
2.52	0.00
2.63	0.00
2.67	0.00
2.77	0.00
2.86	0.00
2.97	0.00
3.06	0.00
3.17	0.00
3.27	0.00
3.36	0.00
3.47	0.00
3.63	0.00
3.72	0.00
3.77	0.00
3.92	0.00
4.02	0.00
4.06	0.00
4.22	0.00
4.33	0.00
4.42	0.00
4.47	0.00
4.63	0.00
4.72	0.00
4.77	0.00
4.86	0.00
4.95	0.00
5.13	0.00
5.16	0.00
5.27	0.00
5.36	0.00
5.45	0.00
5.61	0.00
5.66	-6.08
5.77	-6.08
5.86	-10.24
5.95	-11.21
6.06	-12.00
6.22	-12.67
6.25	-10.94
6.36	-10.94
6.52	-10.98
6.56	-10.44
6.72	-10.44
6.81	-10.96
6.86	-11.22
7.02	-11.22
7.11	-10.88
7.16	-10.92
7.25	-10.92
7.36	-10.88
7.45	-10.77
7.61	-10.55
7.66	-10.25
7.75	-10.25
7.91	-10.20
8.02	-10.17
8.05	-10.24
8.16	-10.24
8.31	-10.32
8.36	-10.51
8.50	-10.51
8.55	-10.64
8.66	-10.64
8.80	-10.63
8.91	-10.52
8.95	-10.46
9.09	-10.46
9.20	-10.78
9.25	-10.76
9.41	-10.76
9.50	-10.67
9.55	-10.54
9.70	-10.54
9.75	-10.55
9.84	-10.55
9.95	-10.54
10.05	-10.51
10.14	-10.53
10.25	-10.50
10.34	-10.38
10.45	-10.31
10.55	-10.34
10.64	-10.35
10.75	-10.33
10.84	-10.41
10.94	-13.60
11.05	-21.17
11.14	-23.60
11.30	-23.59
11.34	-22.22
11.50	-22.22
11.59	-19.63
11.64	-18.94
11.73	-18.94
11.89	-18.18
11.94	-17.61
12.05	-17.61
12.14	-17.42
12.30	-17.26
12.34	-19.74
12.44	-19.74
12.55	-19.62
12.64	-19.39
12.73	-19.50
12.89	-19.20
12.94	-18.73
13.09	-18.73
13.19	-18.51
13.23	-18.41
13.34	-18.41
13.44	-18.19
13.59	-17.92
13.69	-17.46
13.80	-17.32
13.83	-17.09
14.00	-17.09
14.09	-16.93
14.14	-17.01
14.23	-17.01
14.33	-16.93
14.44	-16.90
14.59	-16.82
14.64	-16.45
14.78	-16.45
14.89	-16.15
14.94	-15.97
15.03	-15.97
15.13	-11.84
15.28	-8.50
15.33	-7.75
15.44	-7.75
15.53	-7.08
15.63	-7.67
15.73	-7.57
15.89	-6.79
15.94	-7.45
16.03	-7.45
16.13	-7.70
16.24	-8.14
16.39	-8.68
16.49	-8.89
16.53	-9.02
16.69	-9.02
16.78	-9.60
16.83	-9.48
16.92	-9.48
17.03	-9.53
17.13	-9.46
17.22	-9.28
17.33	-9.12
17.49	-9.01
17.53	-8.77
17.63	-8.77
17.72	-8.77
17.83	-8.77
17.99	-8.76
18.03	-8.77
18.17	-8.77
18.22	-8.85
18.33	-8.85
18.42	-8.83
18.58	-8.77
18.67	-8.79
18.72	-8.74
18.88	-8.74
18.99	-8.92
19.02	-8.94
19.17	-8.94
19.28	-8.82
19.33	-8.79
19.42	-8.79
19.52	-8.03
19.63	-5.88
19.78	-2.95
19.88	0.00
19.99	0.00
20.02	0.00
20.13	0.00
20.22	0.00
20.31	0.00
20.42	0.00
20.58	0.00
20.63	0.00
20.72	0.00
20.88	0.00
20.92	0.00
21.02	0.00
21.17	0.00
21.22	0.00
21.31	0.00
21.42	0.00
21.52	0.00
21.61	0.00
21.72	0.00
21.81	0.00
21.92	0.00
22.06	0.00
22.11	0.00
22.27	0.00
22.31	0.00
22.47	0.00
22.52	0.00
22.61	0.00
22.77	0.00
22.81	-8.41
22.97	-8.41
23.06	-10.91
23.11	-11.59
23.20	-11.59
23.31	-11.82
23.47	-11.62
23.56	-10.93
23.61	-10.69
23.70	-10.69
23.86	-10.51
23.91	-10.21
24.00	-10.21
24.11	-10.18
24.20	-9.94
24.31	-9.82
24.41	-9.67
24.56	-9.56
24.61	-9.35
24.77	-9.35
24.86	-9.65
24.91	-9.57
25.06	-9.57
25.16	-9.57
25.20	-9.62
25.31	-9.62
25.41	-9.46
25.50	-9.74
25.61	-10.12
25.77	-10.69
25.86	-10.88
25.91	-10.60
26.06	-10.60
26.16	-10.73
26.20	-10.76
26.30	-10.76
26.41	-15.78
26.56	-21.94
26.66	-23.20
26.77	-23.32
26.80	-23.11
26.91	-23.11
27.00	-21.60
27.09	-21.03
27.25	-21.02
27.30	-20.17
27.45	-20.17
27.50	-19.51
27.66	-19.51
27.70	-18.53
27.80	-18.53
27.89	-18.40
28.05	-18.34
28.09	-18.26
28.20	-18.26
28.34	-18.17
28.39	-17.89
28.50	-17.89
28.66	-17.88
28.69	-18.23
28.84	-18.23
28.89	-18.19
29.00	-18.19
29.09	-18.19
29.19	-18.24
29.34	-18.11
29.45	-18.14
29.55	-18.09
29.59	-18.17
29.75	-18.17
29.84	-17.88
29.89	-17.60
30.05	-17.60
30.14	-17.41
30.19	-17.37
30.34	-17.37
30.44	-17.19
30.49	-16.92
30.59	-16.92
30.69	-10.94
30.84	-7.52
30.94	-7.37
31.05	-7.71
31.09	-7.12
31.19	-7.12
31.34	-7.26
31.39	-7.13
31.49	-7.13
31.59	-6.49
31.69	-6.61
31.84	-7.00
31.94	-8.44
31.99	-9.67
32.14	-9.67
32.25	-10.47
32.34	-10.22
32.39	-9.93
32.49	-9.93
32.58	-9.76
32.69	-9.67
32.78	-9.41
32.88	-9.10
33.05	-8.90
33.14	-8.41
33.24	-8.25
33.28	-8.27
33.38	-8.27
33.49	-8.18
33.64	-8.17
33.74	-8.28
33.78	-8.33
33.88	-8.33
33.99	-8.59
34.08	-9.06
34.17	-9.29
34.33	-9.38
34.44	-9.51
34.49	-9.76
34.64	-9.76
34.74	-9.80
34.78	-9.71
34.88	-9.71
35.03	-9.67
35.14	-9.32
35.17	-9.13
35.33	-9.13
35.44	-8.70
35.49	-8.60
35.64	-8.60
35.74	-8.60
35.78	-8.46
35.88	-8.46
36.03	-8.34
36.08	-8.35
36.17	-8.35
36.28	-7.91
36.42	-5.94
36.53	0.00
36.63	0.00
36.67	0.00
36.83	0.00
36.92	0.00
36.97	0.00
37.13	0.00
37.22	0.00
37.27	0.00
37.42	0.00
37.47	0.00
37.58	0.00
37.72	0.00
37.83	0.00
37.92	0.00
37.97	0.00
38.08	0.00
38.17	0.00
38.27	0.00
38.38	0.00
38.53	0.00
38.56	0.00
38.67	0.00
38.83	0.00
38.86	0.00
39.03	0.00
39.13	0.00
39.17	0.00
39.33	0.00
39.42	0.00
39.47	0.00
39.63	0.00
39.72	-9.49
39.77	-11.76
39.86	-11.76
40.02	-13.53
40.06	-13.91
40.16	-13.91
40.31	-13.42
40.36	-12.67
40.52	-12.67
40.63	-11.36
40.66	-11.07
40.81	-11.07
40.92	-10.95
40.97	-10.29
41.06	-10.29
41.16	-9.83
41.27	-9.87
41.36	-9.90
41.45	-9.77
41.56	-9.48
41.72	-9.49
41.81	-9.37
41.92	-8.81
42.02	-8.40
42.13	-8.34
42.16	-8.21
42.27	-8.21
42.36	-8.26
42.45	-8.12
42.56	-8.19
42.66	-7.96
42.77	-7.48
42.86	-7.03
43.00	-7.11
43.05	-8.35
43.16	-8.35
43.31	-16.48
43.36	-18.23
43.45	-18.23
43.61	-15.91
43.66	-13.85
43.75	-13.85
43.91	-14.03
43.95	-14.04
44.05	-14.04
44.16	-14.36
44.25	-17.61
44.34	-20.52
44.50	-20.75
44.61	-18.75
44.66	-17.75
44.75	-17.75
44.84	-16.70
44.95	-16.01
45.11	-15.62
45.16	-15.11
45.31	-15.11
45.41	-14.94
45.45	-14.83
45.55	-14.83
45.70	-14.78
45.75	-14.60
45.84	-14.60
45.95	-14.27
46.05	-14.18
46.14	-14.08
46.30	-14.01
46.34	-14.03
46.50	-14.03
46.55	-13.83
46.64	-13.83
46.75	-13.72
46.84	-13.66
46.95	-13.71
47.09	-13.50
47.20	-13.44
47.30	-13.47
47.34	-13.67
47.50	-13.67
47.59	-13.85
47.64	-14.03
47.75	-14.03
47.89	-15.14
47.94	-15.86
48.09	-15.86
48.20	-16.37
48.25	-16.90
48.34	-16.90
48.50	-16.60
48.53	-17.32
48.69	-17.32
48.80	-17.85
48.84	-17.73
48.99	-17.73
49.09	-18.00
49.14	-18.26
49.30	-18.26
49.39	-17.97
49.44	-17.73
49.53	-17.73
49.69	-17.62
49.74	-17.61
49.84	-17.61
49.94	-17.30
50.03	-16.90
50.14	-16.67
50.30	-16.57
50.33	-16.21
50.44	-16.21
50.53	-15.63
50.69	-12.60
50.74	-5.97
50.89	-5.97
50.94	-5.20
51.03	-5.20
51.14	-5.52
51.24	-5.13
51.33	-4.84
51.49	-4.89
51.53	-5.07
51.63	-5.07
51.78	-5.63
51.83	-6.02
51.99	-6.02
52.08	-9.52
52.13	-9.56
52.24	-9.56
52.33	-9.35
52.49	-9.11
52.53	-8.94
52.69	-8.94
52.78	-8.44
52.83	-8.22
52.99	-8.22
53.03	-8.09
53.19	-8.09
53.28	-8.03
53.33	-8.11
53.49	-8.11
53.58	-8.30
53.63	-8.35
53.72	-8.35
53.83	-8.37
53.92	-8.21
54.08	-7.93
54.13	-7.65
54.22	-7.65
54.38	-7.60
54.49	-7.63
54.58	-7.61
54.63	-7.58
54.78	-7.58
54.83	-7.60
54.92	-7.60
55.08	-7.89
55.13	-7.97
55.28	-7.97
55.38	-7.87
55.42	-8.35
55.58	-8.35
55.67	0.00
55.72	0.00
55.88	0.00
55.97	0.00
56.02	0.00
56.13	0.00
56.22	0.00
56.38	0.00
56.42	0.00
56.58	0.00
56.63	0.00
56.72	0.00
56.88	0.00
56.92	0.00
57.08	0.00
57.17	0.00
57.28	0.00
57.31	0.00
57.47	0.00
57.52	0.00
57.61	0.00
57.72	0.00
57.81	0.00
57.92	0.00
58.02	0.00
58.17	0.00
58.20	0.00
58.36	0.00
58.41	0.00
58.56	0.00
58.67	0.00
58.70	0.00
58.81	0.00
58.91	0.00
59.02	0.00
59.11	0.00
59.27	0.00
59.31	0.00
59.47	0.00
59.50	0.00
59.61	0.00
59.77	0.00
59.86	0.00
59.97	0.00
60.00	0.00
60.11	0.00
60.20	0.00
60.31	0.00
60.41	0.00
60.50	0.00
60.61	0.00
60.75	0.00
60.81	0.00
60.91	0.00
61.00	0.00
61.16	0.00
61.27	0.00
61.31	0.00
61.45	0.00
61.56	0.00
61.61	0.00

Channel 1: Max.=0.00[N],Min.=-23.60[N],Avg.=8.60[N]
