			Data Report


Test Item:1.15.14   Test Times:1
Test Date:2018-1-11 
Channel 1:
Range:100[N],Up.:0.00,Low.:100.00,Com.:100.00,Sense.:0.00,GravityAcceleration:9.800
Time[s]	Channel 1 [N]	
61.83	0.00
0.08	0.00
0.13	0.00
0.28	0.00
0.31	0.00
0.47	0.00
0.58	0.00
0.67	0.00
0.72	0.00
0.88	0.00
0.92	0.00
1.02	0.00
1.11	0.00
1.22	0.00
1.31	0.00
1.42	0.00
1.52	0.00
1.67	0.00
1.77	0.00
1.81	0.00
1.92	0.00
2.02	0.00
2.11	0.00
2.27	0.00
2.36	0.00
2.41	0.00
2.52	0.00
2.67	0.00
2.77	0.00
2.81	0.00
2.97	0.00
3.06	0.00
3.11	0.00
3.27	0.00
3.36	0.00
3.41	0.00
3.52	0.00
3.61	0.00
3.77	0.00
3.86	0.00
3.91	0.00
4.02	0.00
4.11	0.00
4.20	0.00
4.36	0.00
4.41	0.00
4.56	0.00
4.61	0.00
4.70	0.00
4.81	0.00
4.95	0.00
5.00	0.00
5.11	0.00
5.25	0.00
5.31	0.00
5.45	0.00
5.50	-1.92
5.61	-1.92
5.77	-2.71
5.80	-4.19
5.95	-4.19
6.06	-5.82
6.11	-6.00
6.20	-6.00
6.30	-6.69
6.45	-7.15
6.50	-7.61
6.66	-7.61
6.70	-7.70
6.86	-7.70
6.95	-7.90
7.00	-8.21
7.16	-8.21
7.20	-8.47
7.30	-8.47
7.41	-8.57
7.50	-8.91
7.66	-9.33
7.70	-8.99
7.86	-8.99
7.95	-8.97
8.00	-9.06
8.16	-9.06
8.25	-9.84
8.30	-10.07
8.39	-10.07
8.55	-10.01
8.59	-9.59
8.70	-9.59
8.80	-9.36
8.89	-9.53
9.00	-9.53
9.16	-9.45
9.19	-9.33
9.34	-9.33
9.39	-9.55
9.55	-9.55
9.59	-9.55
9.69	-9.55
9.84	-9.57
9.95	-9.57
9.98	-9.71
10.09	-9.71
10.19	-9.63
10.34	-9.62
10.45	-9.73
10.48	-9.53
10.66	-9.53
10.75	-10.03
10.80	-10.14
10.95	-10.14
10.98	-10.08
11.09	-10.08
11.23	-9.85
11.28	-9.88
11.39	-9.88
11.48	-9.59
11.59	-9.70
11.73	-9.69
11.78	-9.77
11.94	-9.77
11.98	-9.77
12.14	-9.77
12.23	-9.85
12.28	-9.93
12.39	-9.93
12.55	-10.76
12.58	-14.09
12.69	-14.09
12.78	-14.65
12.89	-14.32
13.05	-13.66
13.14	-12.85
13.19	-12.34
13.34	-12.34
13.44	-12.61
13.48	-13.49
13.58	-13.49
13.69	-14.66
13.78	-14.61
13.94	-14.55
13.98	-14.43
14.13	-14.43
14.19	-14.14
14.28	-14.14
14.38	-13.39
14.53	-13.46
14.58	-13.67
14.67	-13.67
14.83	-13.66
14.88	-14.05
15.03	-14.05
15.08	-14.57
15.17	-14.57
15.28	-14.44
15.38	-14.21
15.48	-14.01
15.63	-13.65
15.67	-13.80
15.83	-13.80
15.88	-13.70
16.03	-13.70
16.13	-13.73
16.17	-13.89
16.33	-13.89
16.38	-13.76
16.47	-13.76
16.63	-13.87
16.67	-14.44
16.77	-14.44
16.94	-15.60
16.97	-17.17
17.13	-17.17
17.17	-17.55
17.33	-17.55
17.42	-18.00
17.47	-18.24
17.58	-18.24
17.67	-18.87
17.83	-18.79
17.92	-18.97
18.02	-19.04
18.06	-18.67
18.22	-18.67
18.27	-18.29
18.38	-18.29
18.47	-18.13
18.56	-18.31
18.67	-19.51
18.77	-19.70
18.88	-19.12
18.97	-18.98
19.06	-18.84
19.22	-18.92
19.27	-18.81
19.42	-18.81
19.52	-19.74
19.56	-19.33
19.67	-19.33
19.83	-19.01
19.86	-19.22
20.02	-19.22
20.13	-19.21
20.16	-19.05
20.31	-19.05
20.36	-19.22
20.47	-19.22
20.56	-19.19
20.72	-19.09
20.77	-18.98
20.86	-18.98
20.97	-18.75
21.06	-18.61
21.16	-18.56
21.27	-18.70
21.42	-18.57
21.52	-18.60
21.56	-16.05
21.66	-16.05
21.77	-12.70
21.86	-11.18
21.95	-9.88
22.06	-10.18
22.16	-10.79
22.31	-11.53
22.36	-12.33
22.45	-12.33
22.56	-12.69
22.72	-12.72
22.81	-12.64
22.86	-12.32
23.02	-12.32
23.11	-11.51
23.16	-11.27
23.25	-11.27
23.41	-11.50
23.45	-11.55
23.61	-11.55
23.70	-11.76
23.75	-11.62
23.86	-11.62
24.00	-11.68
24.05	-11.34
24.16	-11.34
24.25	-11.06
24.34	-10.92
24.45	-11.01
24.55	-11.05
24.66	-11.11
24.81	-10.95
24.84	-10.45
24.95	-10.45
25.11	-10.09
25.20	-10.07
25.25	-10.20
25.41	-10.20
25.50	-9.99
25.55	-9.91
25.70	-9.91
25.81	-10.16
25.84	-10.26
25.95	-10.26
26.11	-10.20
26.14	-10.17
26.25	-10.17
26.34	-10.19
26.50	-10.16
26.55	-10.66
26.70	-10.66
26.75	-16.24
26.84	-16.24
26.94	-19.05
27.09	-19.54
27.14	-17.73
27.25	-17.73
27.39	-16.95
27.50	-17.94
27.59	-18.70
27.64	-19.14
27.80	-19.14
27.84	-18.79
28.00	-18.79
28.05	-19.20
28.20	-19.20
28.23	-20.12
28.39	-20.12
28.50	-20.12
28.55	-19.60
28.64	-19.60
28.73	-18.68
28.89	-18.54
28.94	-17.97
29.03	-17.97
29.19	-18.13
29.28	-18.58
29.39	-18.77
29.44	-18.75
29.59	-18.75
29.69	-18.67
29.73	-18.75
29.83	-18.75
29.94	-18.76
30.03	-18.78
30.14	-18.60
30.28	-18.52
30.33	-18.84
30.44	-18.84
30.59	-19.03
30.64	-19.28
30.73	-19.28
30.83	-19.96
30.94	-21.14
31.03	-21.04
31.13	-20.68
31.23	-20.23
31.39	-19.82
31.48	-19.39
31.53	-19.36
31.63	-19.36
31.73	-20.21
31.89	-20.45
31.92	-21.21
32.03	-21.21
32.19	-21.92
32.28	-21.55
32.33	-21.53
32.48	-21.53
32.53	-21.57
32.69	-21.57
32.73	-22.71
32.88	-22.71
32.98	-24.35
33.03	-24.21
33.19	-24.21
33.22	-23.75
33.38	-23.75
33.48	-23.55
33.53	-23.62
33.63	-23.62
33.72	-23.49
33.88	-24.39
33.92	-24.16
34.08	-24.16
34.19	-26.81
34.22	-27.17
34.33	-27.17
34.42	-29.04
34.58	-30.33
34.69	-30.94
34.78	-29.60
34.83	-29.30
34.92	-29.30
35.02	-29.32
35.13	-29.06
35.22	-28.25
35.31	-26.82
35.42	-26.08
35.52	-31.65
35.67	-41.86
35.72	-44.61
35.81	-44.61
35.97	-41.60
36.02	-42.87
36.11	-42.87
36.22	-45.82
36.31	-44.57
36.42	-44.30
36.58	-44.43
36.61	-43.79
36.77	-43.79
36.81	-42.14
36.97	-42.14
37.08	-40.04
37.17	-39.80
37.22	-38.88
37.38	-38.88
37.47	-35.85
37.52	-36.77
37.67	-36.77
37.77	-37.02
37.81	-37.06
37.91	-37.06
38.02	-38.08
38.11	-39.09
38.27	-39.49
38.31	-38.74
38.41	-38.74
38.52	-37.94
38.61	-37.55
38.70	-37.77
38.86	-39.58
38.97	-41.41
39.02	-41.72
39.16	-41.72
39.27	-39.96
39.31	-38.69
39.41	-38.69
39.50	-38.37
39.66	-37.97
39.70	-39.36
39.81	-39.36
39.97	-39.17
40.00	-38.92
40.16	-38.92
40.20	-39.26
40.36	-39.26
40.47	-39.17
40.56	-39.42
40.61	-39.34
40.70	-39.34
40.86	-39.00
40.91	-38.45
41.06	-38.45
41.16	-37.74
41.20	-37.28
41.36	-37.28
41.45	-36.78
41.50	-36.36
41.61	-36.36
41.70	-35.91
41.86	-35.93
41.95	-35.98
42.05	-35.80
42.09	-35.58
42.25	-35.58
42.30	-35.04
42.45	-35.04
42.50	-29.51
42.66	-29.51
42.70	-20.14
42.86	-20.14
42.95	-20.60
43.00	-21.17
43.09	-21.17
43.25	-21.40
43.30	-22.77
43.39	-22.77
43.50	-22.02
43.66	-23.78
43.75	-24.40
43.86	-23.04
43.89	-20.98
44.00	-20.98
44.16	-18.60
44.19	-17.72
44.30	-17.72
44.45	-19.46
44.50	-20.12
44.64	-20.12
44.69	-21.13
44.80	-21.13
44.95	-20.87
45.00	-20.60
45.09	-20.60
45.19	-20.63
45.30	-20.66
45.39	-20.79
45.48	-20.68
45.64	-20.77
45.69	-20.51
45.84	-20.51
45.94	-20.42
45.98	-19.95
46.09	-19.95
46.25	-19.54
46.28	-20.12
46.44	-20.12
46.55	-20.56
46.59	-20.68
46.75	-20.68
46.84	-20.26
46.89	-19.66
47.05	-19.66
47.14	-19.36
47.19	-18.90
47.34	-18.90
47.44	-17.47
47.48	-17.89
47.64	-17.89
47.73	-16.28
47.78	-15.70
47.89	-15.70
47.98	-16.25
48.08	-16.29
48.19	-15.63
48.28	-15.49
48.44	-16.07
48.53	-15.97
48.58	-16.30
48.73	-16.30
48.84	-16.31
48.94	-16.46
48.98	-16.66
49.08	-16.66
49.23	-16.34
49.28	-16.59
49.44	-16.59
49.53	-18.16
49.58	-19.25
49.73	-19.25
49.84	-19.93
49.88	-20.00
49.98	-20.00
50.08	-20.18
50.17	-20.06
50.33	-19.73
50.42	-19.70
50.47	-19.50
50.58	-19.50
50.67	-19.39
50.78	-18.90
50.92	-18.78
51.03	-17.51
51.08	-17.78
51.17	-17.78
51.28	-17.62
51.42	-17.29
51.47	-16.97
51.58	-16.97
51.67	-17.38
51.83	-17.35
51.88	-17.22
51.97	-17.22
52.13	-17.41
52.17	-17.48
52.33	-17.48
52.38	-17.58
52.47	-17.58
52.58	-17.38
52.67	-17.44
52.83	-17.54
52.92	-17.84
52.97	-17.91
53.13	-17.91
53.23	-18.69
53.27	-18.63
53.38	-18.63
53.47	-18.55
53.56	-18.46
53.72	-18.31
53.81	-18.06
53.86	-17.71
54.02	-17.71
54.13	-17.38
54.17	-17.49
54.31	-17.49
54.42	-18.44
54.47	-18.02
54.56	-18.02
54.67	-16.93
54.81	-16.49
54.92	-16.47
54.97	-16.56
55.13	-16.56
55.22	-20.23
55.31	-20.39
55.36	-20.13
55.47	-20.13
55.56	-19.64
55.72	-20.27
55.77	-20.58
55.92	-20.58
55.95	-20.16
56.06	-20.16
56.16	-19.53
56.31	-18.34
56.36	-17.81
56.45	-17.81
56.56	-17.68
56.66	-17.22
56.81	-16.07
56.86	-15.04
56.95	-15.04
57.06	-15.76
57.16	-15.67
57.31	-16.03
57.41	-16.53
57.45	-16.23
57.56	-16.23
57.66	-16.17
57.81	-15.89
57.86	-14.38
57.95	-14.38
58.05	-14.71
58.16	-14.82
58.25	-15.27
58.36	-15.12
58.52	-15.21
58.61	-14.94
58.72	-15.02
58.75	-16.42
58.86	-16.42
58.95	-16.56
59.11	-14.86
59.22	-12.42
59.31	-12.38
59.34	-12.59
59.50	-12.59
59.55	-12.52
59.66	-12.52
59.75	-13.37
59.84	-13.55
60.00	-13.81
60.11	-15.61
60.20	-16.59
60.25	-16.94
60.34	-16.94
60.45	-17.99
60.55	-20.96
60.64	-27.86
60.75	-33.94
60.84	-38.30
60.95	-43.86
61.05	-47.57
61.20	-49.45
61.30	-52.87
61.41	-54.22
61.45	-54.63
61.55	-54.63
61.70	-56.51
61.75	-57.02
61.84	-57.02
61.94	-57.09
62.05	-59.03
62.14	-61.69
62.30	-61.67
62.41	-62.37
62.44	-61.40
62.59	-61.40
62.64	-53.63
62.80	-53.63
62.89	-49.03
62.94	-47.97
63.09	-47.97
63.19	-47.78
63.23	-47.98
63.34	-47.98
63.44	-48.91
63.55	-49.67
63.64	-50.85
63.80	-50.98
63.84	-51.81
63.94	-51.81
64.03	-54.98
64.19	-56.19
64.23	-56.07
64.34	-56.07
64.44	-51.85
64.53	-50.45
64.69	-49.71
64.80	-49.07
64.84	-49.34
65.00	-49.34
65.09	-49.04
65.14	-48.72
65.23	-48.72
65.33	-48.49
65.44	-48.48
65.53	-48.05
65.64	-47.72
65.73	-47.04
65.89	-47.09
65.98	-47.70
66.03	-47.70
66.13	-47.70
66.23	-47.26
66.39	-47.17
66.44	-46.42
66.53	-46.42
66.69	-46.19
66.78	-45.31
66.83	-45.12
66.98	-45.12
67.03	-40.57
67.13	-40.57
67.28	-21.25
67.33	-3.69
67.48	-3.69
67.58	1.54
67.63	0.00
67.73	0.00
67.89	0.00
67.92	0.00
68.03	0.00
68.13	0.00
68.28	0.00
68.39	0.00
68.48	0.00
68.53	0.00
68.63	0.00
68.78	0.00
68.83	0.00
68.92	0.00
69.08	0.00
69.13	0.00
69.22	0.00
69.33	0.00
69.42	0.00
69.58	0.00
69.67	0.00
69.72	0.00
69.88	0.00
69.97	0.00
70.02	0.00
70.17	0.00
70.28	0.00
70.33	0.00
70.42	0.00
70.52	0.00
70.63	0.00
70.72	0.00
70.81	0.00
70.97	0.00
71.02	0.00
71.17	0.00
71.22	0.00
71.38	0.00
71.42	0.00
71.52	0.00

Channel 1: Max.=1.54[N],Min.=-62.37[N],Avg.=19.40[N]
