			Data Report


Test Item:1.16.1.1   Test Times:1
Test Date:2018-1-11 
Channel 1:
Range:100[N],Up.:0.00,Low.:100.00,Com.:100.00,Sense.:0.00,GravityAcceleration:9.800
Time[s]	Channel 1 [N]	
0.01	0.00
0.17	0.00
0.22	0.00
0.31	0.00
0.42	0.00
0.51	0.00
0.67	0.00
0.72	0.00
0.88	0.00
0.92	0.00
1.01	0.00
1.17	0.00
1.28	0.00
1.31	0.00
1.47	0.00
1.56	0.00
1.61	0.00
1.76	0.00
1.86	0.00
1.91	0.00
2.02	0.00
2.17	0.00
2.27	0.00
2.31	0.00
2.47	0.00
2.56	0.00
2.61	0.00
2.77	0.00
2.86	0.00
2.91	0.00
3.06	0.00
3.17	0.00
3.20	0.00
3.31	0.00
3.41	0.00
3.56	0.00
3.67	0.00
3.70	0.00
3.81	0.00
3.97	0.00
4.00	0.00
4.11	0.00
4.20	0.00
4.31	0.00
4.41	0.00
4.50	0.00
4.61	0.00
4.76	0.00
4.86	0.00
4.91	0.00
5.00	0.00
5.11	0.00
5.20	0.00
5.30	0.00
5.45	0.00
5.50	0.00
5.61	0.00
5.75	0.00
5.80	0.00
5.95	0.00
6.06	0.00
6.16	0.00
6.20	0.00
6.30	0.00
6.45	0.00
6.50	0.00
6.66	0.00
6.75	0.00
6.80	0.00
6.91	0.00
7.06	0.00
7.09	0.00
7.25	0.00
7.36	0.00
7.41	0.00
7.50	0.00
7.66	-2.13
7.70	-4.97
7.86	-4.97
7.89	-5.81
8.00	-5.81
8.16	-5.98
8.20	-6.68
8.34	-6.68
8.39	-8.27
8.55	-8.27
8.64	-8.29
8.75	-9.95
8.80	-9.85
8.95	-9.85
9.05	-10.27
9.09	-12.20
9.19	-12.20
9.34	-13.25
9.39	-12.62
9.55	-12.62
9.66	-12.24
9.69	-11.89
9.80	-11.89
9.89	-11.86
10.00	-11.72
10.09	-11.60
10.19	-11.60
10.34	-11.37
10.45	-11.19
10.55	-11.09
10.59	-11.22
10.69	-11.22
10.80	-11.29
10.89	-11.12
11.05	-10.75
11.09	-10.15
11.25	-10.15
11.28	-10.57
11.45	-10.57
11.55	-10.30
11.64	-10.40
11.69	-10.09
11.78	-10.09
11.94	-10.44
11.98	-10.01
12.14	-10.01
12.23	-9.60
12.28	-11.66
12.39	-11.66
12.55	-16.66
12.58	-18.27
12.69	-18.27
12.84	-19.66
12.89	-22.01
12.98	-22.01
13.08	-21.34
13.19	-19.76
13.28	-18.33
13.44	-17.44
13.55	-16.93
13.58	-17.84
13.73	-17.84
13.84	-18.24
13.88	-18.26
13.98	-18.26
14.14	-18.33
14.19	-18.83
14.34	-18.83
14.44	-19.00
14.48	-19.01
14.64	-19.01
14.69	-19.11
14.78	-19.11
14.94	-18.78
14.98	-19.24
15.13	-19.24
15.17	-18.96
15.33	-18.96
15.38	-18.82
15.48	-18.82
15.58	-18.94
15.73	-19.34
15.78	-18.32
15.94	-18.32
16.03	-18.35
16.08	-18.05
16.17	-18.05
16.28	-17.88
16.44	-18.01
16.47	-17.76
16.63	-17.76
16.67	-17.77
16.78	-17.77
16.88	-18.06
16.97	-18.09
17.08	-15.69
17.23	-12.46
17.33	-10.02
17.38	-8.52
17.53	-8.52
17.63	-7.32
17.67	-6.46
17.76	-6.46
17.88	-6.13
18.03	-6.40
18.08	-7.97
18.23	-7.97
18.33	-8.02
18.38	-8.03
18.47	-8.03
18.63	-7.98
18.67	-7.71
18.76	-7.71
18.92	-7.81
18.97	-7.23
19.13	-7.23
19.17	-7.42
19.33	-7.42
19.38	-7.21
19.47	-7.21
19.63	-7.11
19.67	-6.81
19.83	-6.81
19.92	-6.67
19.97	-6.76
20.13	-6.76
20.22	-6.69
20.26	-6.67
20.36	-6.67
20.47	-6.76
20.56	-6.88
20.72	-6.92
20.83	-7.03
20.86	-7.00
21.01	-7.00
21.06	-7.47
21.16	-7.47
21.33	-7.36
21.36	-7.30
21.51	-7.30
21.61	-7.16
21.66	-7.25
21.76	-7.25
21.86	-7.25
22.01	-7.25
22.06	-7.45
22.16	-7.45
22.31	-7.63
22.41	-8.44
22.51	-8.12
22.56	-8.14
22.66	-8.14
22.76	-9.86
22.86	-14.25
22.95	-16.04
23.06	-17.39
23.16	-16.21
23.31	-14.57
23.41	-12.93
23.45	-12.39
23.61	-12.39
23.72	-13.03
23.75	-13.37
23.86	-13.37
23.95	-15.92
24.06	-17.28
24.22	-15.02
24.25	-14.72
24.36	-14.72
24.45	-13.54
24.61	-12.67
24.72	-11.41
24.81	-11.31
24.86	-11.66
24.95	-11.66
25.11	-11.69
25.16	-11.28
25.31	-11.28
25.36	-14.54
25.45	-14.54
25.61	-14.61
25.70	-15.75
25.75	-17.28
25.84	-17.28
26.00	-17.34
26.05	-17.49
26.16	-17.49
26.31	-17.74
26.34	-19.89
26.50	-19.89
26.61	-18.81
26.66	-19.09
26.81	-19.09
26.91	-19.12
26.95	-18.99
27.05	-18.99
27.14	-18.84
27.25	-18.60
27.34	-18.44
27.45	-18.34
27.61	-18.47
27.64	-18.46
27.80	-18.46
27.91	-18.49
27.94	-18.09
28.05	-18.09
28.20	-17.40
28.25	-16.99
28.39	-16.99
28.44	-17.41
28.55	-17.41
28.70	-17.30
28.75	-17.94
28.89	-17.94
29.00	-17.89
29.05	-17.91
29.20	-17.91
29.30	-17.50
29.39	-17.27
29.44	-17.36
29.55	-17.36
29.64	-17.40
29.80	-17.49
29.84	-17.26
29.94	-17.26
30.05	-17.08
30.14	-16.87
30.23	-16.96
30.39	-17.15
30.44	-16.70
30.53	-16.70
30.64	-16.60
30.73	-16.33
30.84	-16.27
30.94	-16.53
31.03	-16.45
31.14	-17.00
31.23	-16.97
31.39	-16.54
31.44	-16.70
31.59	-16.70
31.64	-17.44
31.73	-17.44
31.89	-19.21
31.94	-18.99
32.09	-18.99
32.19	-20.08
32.23	-19.57
32.33	-19.57
32.48	-19.10
32.53	-18.59
32.63	-18.59
32.73	-18.26
32.89	-18.43
32.98	-18.37
33.03	-18.48
33.19	-18.48
33.28	-18.36
33.33	-18.53
33.44	-18.53
33.59	-18.41
33.63	-18.36
33.78	-18.36
33.89	-18.39
33.92	-18.84
34.09	-18.84
34.19	-19.41
34.23	-19.09
34.33	-19.09
34.42	-19.08
34.53	-18.93
34.67	-18.85
34.78	-17.81
34.83	-17.97
34.98	-17.97
35.08	-17.99
35.13	-18.38
35.28	-18.38
35.38	-18.03
35.42	-17.68
35.53	-17.68
35.63	-7.12
35.78	0.00
35.83	0.00
35.92	0.00
36.08	0.00
36.13	0.00
36.28	0.00
36.38	0.00
36.48	0.00
36.51	0.00
36.67	0.00
36.78	0.00
36.83	0.00
36.92	0.00
37.08	0.00
37.13	0.00
37.28	0.00
37.31	0.00
37.42	0.00
37.51	0.00
37.63	0.00
37.76	0.00
37.81	0.00
37.92	0.00
38.01	0.00
38.17	0.00
38.26	0.00
38.31	0.00
38.42	0.00
38.58	0.00
38.61	0.00
38.72	0.00
38.81	0.00
38.92	0.00
39.01	0.00
39.11	0.00
39.22	0.00
39.31	0.00
39.42	0.00
39.51	0.00
39.67	0.00
39.72	0.00
39.81	0.00
39.91	0.00
40.06	0.00
40.11	0.00
40.26	0.00
40.31	0.00
40.41	0.00
40.51	0.00
40.67	0.00
40.72	0.00
40.81	0.00
40.91	0.00
41.06	0.00
41.16	0.00
41.20	0.00
41.31	0.00
41.47	0.00
41.51	0.00
41.66	0.00
41.76	0.00
41.81	0.00
41.97	0.00
42.01	0.00
42.11	0.00
42.26	0.00
42.31	0.00
42.41	0.00
42.50	0.00
42.66	0.00
42.76	0.00
42.86	0.00
42.91	0.00
43.06	0.00
43.16	0.00
43.20	0.00
43.30	0.00
43.41	0.00
43.56	0.00
43.66	0.00
43.70	0.00
43.80	0.00
43.91	0.00
44.06	0.00
44.11	0.00
44.20	0.00
44.30	0.00
44.41	0.00
44.50	0.00
44.66	0.00
44.70	0.00
44.80	0.00
44.91	0.00
45.05	0.00
45.09	0.00
45.20	0.00
45.36	0.00
45.41	0.00
45.50	0.00
45.66	0.00
45.70	0.00
45.86	0.00
45.89	0.00
46.00	0.00
46.09	0.00
46.20	0.00
46.30	0.00
46.45	0.00
46.50	0.00
46.66	0.00
46.75	0.00
46.86	0.00
46.89	0.00
47.00	0.00
47.16	0.00
47.19	0.00
47.30	0.00
47.45	0.00
47.55	0.00
47.59	0.00
47.75	0.00
47.80	0.00
47.94	0.00
47.98	0.00
48.09	0.00
48.19	0.00
48.30	0.00
48.39	0.00
48.55	0.00
48.59	0.00

Channel 1: Max.=0.00[N],Min.=-22.01[N],Avg.=8.16[N]
