			Data Report


Test Item:1.15.8   Test Times:1
Test Date:2018-1-12 
Channel 1:
Range:100[N],Up.:0.00,Low.:100.00,Com.:100.00,Sense.:0.00,GravityAcceleration:9.800
Time[s]	Channel 1 [N]	
0.05	0.00
0.14	0.00
0.25	0.00
0.34	0.00
0.50	0.00
0.55	0.00
0.64	0.00
0.80	0.00
0.91	0.00
0.94	0.00
1.05	0.00
1.20	0.00
1.24	0.00
1.34	0.00
1.50	0.00
1.55	0.00
1.64	0.00
1.74	0.00
1.89	0.00
1.94	0.00
2.05	0.00
2.19	0.00
2.23	0.00
2.33	0.00
2.44	0.00
2.53	0.00
2.69	0.00
2.73	0.00
2.83	0.00
2.98	0.00
3.03	0.00
3.19	0.00
3.23	0.00
3.33	0.00
3.44	0.00
3.53	0.00
3.63	0.00
3.73	0.00
3.83	0.00
3.94	0.00
4.03	0.00
4.13	0.00
4.28	0.00
4.33	0.00
4.44	0.00
4.59	0.00
4.63	0.00
4.78	0.00
4.83	0.00
4.92	0.00
5.03	0.00
5.13	0.00
5.28	0.00
5.38	0.00
5.49	0.00
5.53	0.00
5.63	0.00
5.74	0.00
5.83	0.00
5.92	0.00
6.03	0.00
6.19	0.00
6.24	0.00
6.33	0.00
6.49	0.00
6.53	0.00
6.69	0.00
6.72	0.00
6.88	0.00
6.92	0.00
7.03	0.00
7.19	0.00
7.22	0.00
7.38	0.00
7.49	0.00
7.53	0.00
7.63	0.00
7.78	0.00
7.83	0.00
7.99	0.00
8.08	-8.74
8.13	-9.07
8.22	-9.07
8.38	-9.71
8.42	-10.45
8.52	-10.45
8.63	-10.54
8.72	-10.08
8.83	-10.15
8.97	-10.07
9.02	-10.20
9.17	-10.20
9.28	-9.78
9.38	-9.71
9.42	-9.32
9.52	-9.32
9.63	-9.18
9.78	-9.08
9.88	-8.81
9.97	-8.62
10.02	-8.45
10.17	-8.45
10.27	-8.37
10.31	-8.25
10.42	-8.25
10.58	-8.02
10.61	-7.17
10.72	-7.17
10.81	-7.11
10.97	-7.03
11.02	-6.94
11.17	-6.94
11.22	-7.22
11.31	-7.22
11.47	-7.32
11.52	-7.51
11.61	-7.51
11.77	-7.17
11.81	-7.61
11.91	-7.61
12.02	-8.07
12.11	-8.52
12.27	-8.72
12.36	-8.34
12.41	-8.44
12.52	-8.44
12.61	-8.48
12.77	-8.58
12.81	-8.66
12.91	-8.66
13.06	-9.12
13.11	-8.93
13.27	-8.93
13.36	-8.78
13.41	-8.75
13.56	-8.75
13.67	-8.87
13.70	-8.77
13.86	-8.77
13.97	-8.52
14.06	-8.72
14.11	-11.63
14.20	-11.63
14.36	-17.61
14.41	-18.37
14.56	-18.37
14.67	-19.39
14.70	-19.81
14.86	-19.81
14.91	-21.45
15.00	-21.45
15.11	-21.48
15.20	-20.63
15.36	-19.70
15.41	-18.96
15.50	-18.96
15.61	-18.00
15.70	-17.64
15.80	-17.50
15.91	-17.29
16.00	-17.10
16.16	-16.87
16.25	-16.35
16.30	-15.93
16.41	-15.93
16.56	-15.64
16.66	-15.91
16.70	-16.93
16.86	-16.93
16.95	-18.28
17.00	-19.63
17.09	-19.63
17.20	-19.07
17.36	-18.45
17.39	-18.52
17.50	-18.52
17.66	-18.29
17.75	-18.40
17.80	-18.43
17.89	-18.43
18.06	-18.39
18.09	-18.21
18.20	-18.21
18.30	-18.01
18.39	-17.90
18.50	-17.74
18.66	-17.50
18.70	-17.67
18.84	-17.67
18.95	-17.50
19.00	-17.49
19.09	-17.49
19.19	-17.44
19.30	-17.41
19.39	-17.30
19.50	-17.07
19.59	-17.02
19.69	-16.97
19.80	-16.75
19.89	-16.58
20.05	-16.41
20.09	-15.98
20.19	-15.98
20.30	-15.85
20.45	-15.37
20.55	-7.46
20.66	-6.46
20.75	-6.48
20.80	-6.06
20.89	-6.06
21.05	-7.33
21.09	-8.00
21.25	-8.00
21.30	-9.06
21.39	-9.06
21.55	-9.67
21.64	-10.66
21.69	-11.13
21.80	-11.13
21.89	-10.95
22.03	-10.90
22.09	-10.70
22.19	-10.70
22.34	-10.46
22.39	-10.30
22.49	-10.30
22.64	-10.23
22.69	-10.33
22.84	-10.33
22.94	-10.49
22.99	-10.49
23.14	-10.49
23.24	-10.10
23.28	-9.73
23.44	-9.73
23.53	-9.60
23.58	-9.47
23.69	-9.47
23.78	-9.37
23.88	-9.27
23.99	-9.10
24.08	-9.06
24.19	-8.89
24.34	-8.80
24.38	-8.76
24.49	-8.76
24.58	-9.03
24.69	-9.44
24.78	-9.96
24.94	-10.23
24.99	-10.97
25.14	-10.97
25.24	-10.52
25.34	-10.70
25.38	-9.61
25.53	-9.61
25.58	-9.77
25.74	-9.77
25.83	-9.78
25.92	-3.98
25.99	1.10
26.13	1.10
26.24	0.00
26.33	0.00
26.38	0.00
26.53	0.00
26.63	0.00
26.74	0.00
26.83	0.00
26.92	0.00
26.97	0.00
27.08	0.00
27.24	0.00
27.27	-9.43
27.42	-9.43
27.53	-12.62
27.58	-12.45
27.74	-12.45
27.83	-12.66
27.88	-12.95
27.97	-12.95
28.08	-13.95
28.17	-15.28
28.27	-15.28
28.38	-15.00
28.47	-14.39
28.56	-13.21
28.67	-12.24
28.77	-12.13
28.88	-11.59
29.02	-10.84
29.13	-11.07
29.17	-11.39
29.27	-11.39
29.42	-11.58
29.52	-11.75
29.56	-11.78
29.67	-11.78
29.83	-11.81
29.88	-11.78
30.02	-11.78
30.13	-11.74
30.17	-11.77
30.27	-11.77
30.42	-12.01
30.47	-12.09
30.63	-12.09
30.72	-11.96
30.83	-11.87
30.86	-11.79
30.97	-11.79
31.06	-11.73
31.22	-11.78
31.27	-12.02
31.36	-12.02
31.47	-15.01
31.63	-19.89
31.67	-22.43
31.77	-22.43
31.86	-21.76
31.97	-20.20
32.06	-19.07
32.22	-18.83
32.27	-18.29
32.36	-18.29
32.52	-18.13
32.56	-18.77
32.66	-18.77
32.77	-18.41
32.91	-18.12
32.97	-17.90
33.06	-17.90
33.16	-17.80
33.25	-17.60
33.36	-17.78
33.45	-17.99
33.56	-17.98
33.66	-17.95
33.81	-17.80
33.86	-17.53
33.95	-17.53
34.11	-17.65
34.16	-19.16
34.25	-19.16
34.36	-19.39
34.45	-19.43
34.61	-19.57
34.72	-19.75
34.75	-19.72
34.91	-19.72
35.02	-19.58
35.05	-19.99
35.22	-19.99
35.31	-19.91
35.41	-19.84
35.45	-19.28
35.61	-19.28
35.72	-19.15
35.75	-18.78
35.91	-18.78
36.00	-18.41
36.05	-18.35
36.20	-18.35
36.31	-18.25
36.41	-18.28
36.45	-18.20
36.61	-18.20
36.70	-17.97
36.75	-17.96
36.91	-17.96
37.00	-17.98
37.05	-18.08
37.16	-18.08
37.25	-18.04
37.34	-17.92
37.50	-17.66
37.55	-17.75
37.70	-17.75
37.75	-17.87
37.91	-17.87
37.95	-17.66
38.11	-17.66
38.20	-17.02
38.25	-13.17
38.41	-13.17
38.50	-8.82
38.55	-9.96
38.64	-9.96
38.75	-11.92
38.91	-13.46
38.94	-14.67
39.11	-14.67
39.20	-15.33
39.25	-15.68
39.39	-15.68
39.50	-15.74
39.55	-15.82
39.64	-15.82
39.75	-14.53
39.84	-12.87
39.94	-12.91
40.09	-12.59
40.20	-11.36
40.24	-10.94
40.34	-10.94
40.44	-11.65
40.55	-12.45
40.64	-12.60
40.74	-12.83
40.84	-13.04
40.94	-13.01
41.05	-12.99
41.14	-12.97
41.30	-12.93
41.34	-12.96
41.50	-12.96
41.53	-12.82
41.69	-12.82
41.80	-12.61
41.84	-12.49
42.00	-12.49
42.03	-12.80
42.19	-12.80
42.24	-12.75
42.39	-12.75
42.50	-11.81
42.59	-12.04
42.64	-12.06
42.74	-12.06
42.84	-12.35
42.94	-12.14
43.03	-11.70
43.19	-11.62
43.24	-11.57
43.39	-11.57
43.44	-11.61
43.53	-11.61
43.64	-11.91
43.78	-11.98
43.83	-12.56
43.99	-12.56
44.03	-8.57
44.14	-8.57
44.24	1.13
44.33	0.00
44.44	0.00
44.53	0.00
44.69	0.00
44.74	0.00
44.89	0.00
44.92	0.00
45.08	0.00
45.19	0.00
45.28	0.00
45.33	0.00
45.49	0.00
45.58	0.00
45.63	0.00
45.74	0.00
45.83	0.00
45.92	0.00
46.03	0.00
46.19	-14.50
46.24	-13.69
46.39	-13.69
46.49	-12.88
46.53	-12.07
46.63	-12.07
46.72	-11.81
46.83	-11.63
46.92	-11.97
47.03	-12.39
47.17	-12.56
47.22	-12.82
47.33	-12.82
47.49	-12.93
47.53	-12.34
47.67	-12.34
47.72	-11.85
47.88	-11.85
47.92	-11.45
48.08	-11.45
48.13	-11.28
48.22	-11.28
48.33	-11.25
48.42	-11.23
48.52	-11.27
48.63	-11.09
48.72	-10.98
48.83	-10.93
48.99	-10.85
49.02	-11.04
49.17	-11.04
49.28	-11.15
49.33	-11.29
49.49	-11.29
49.58	-11.13
49.67	-11.02
49.72	-10.70
49.81	-10.70
49.92	-10.51
50.08	-10.37
50.11	-10.08
50.22	-10.08
50.31	-10.06
50.42	-10.06
50.56	-10.05
50.61	-10.41
50.72	-10.41
50.88	-15.14
50.97	-24.77
51.06	-25.58
51.11	-25.74
51.27	-25.74
51.38	-25.32
51.41	-25.25
51.52	-25.25
51.67	-23.87
51.77	-21.65
51.81	-20.84
51.91	-20.84
52.02	-19.92
52.17	-19.58
52.22	-19.70
52.31	-19.70
52.47	-20.08
52.52	-19.94
52.61	-19.94
52.72	-19.25
52.81	-18.61
52.97	-18.33
53.06	-18.24
53.11	-17.88
53.20	-17.88
53.38	-17.55
53.41	-17.33
53.52	-17.33
53.61	-17.18
53.70	-17.12
53.81	-16.92
53.97	-16.77
54.06	-16.88
54.11	-16.91
54.27	-16.91
54.36	-16.69
54.41	-16.77
54.52	-16.77
54.61	-16.67
54.70	-16.61
54.81	-16.45
54.91	-16.27
55.00	-16.07
55.11	-16.05
55.27	-16.07
55.36	-15.89
55.41	-15.55
55.56	-15.55
55.66	-15.45
55.70	-15.44
55.86	-15.44
55.91	-15.33
56.00	-15.33
56.11	-15.28
56.20	-15.26
56.30	-15.23
56.47	-15.17
56.50	-15.35
56.66	-15.35
56.70	-15.07
56.80	-15.07
56.91	-15.24
57.06	-15.07
57.09	-14.45
57.25	-14.45
57.36	-9.55
57.41	-9.09
57.50	-9.09
57.59	-9.23
57.70	-8.79
57.80	-8.67
57.89	-8.03
58.05	-7.10
58.16	-7.70
58.25	-8.42
58.30	-9.46
58.39	-9.46
58.55	-11.18
58.59	-12.12
58.70	-12.12
58.80	-12.03
58.89	-11.95
59.05	-11.72
59.09	-10.62
59.20	-10.62
59.30	-10.61
59.39	-10.69
59.55	-10.73
59.59	-10.75
59.69	-10.75
59.80	-10.70
59.95	-10.59
60.05	-10.43
60.09	-10.24
60.19	-10.24
60.30	-10.00
60.45	-9.62
60.55	-9.51
60.64	-9.54
60.69	-9.52
60.84	-9.52
60.94	-9.69
60.99	-9.77
61.09	-9.77
61.25	-9.94
61.28	-9.98
61.39	-9.98
61.55	-10.06
61.59	-10.18
61.74	-10.18
61.84	-10.11
61.89	-9.99
61.99	-9.99
62.14	-9.99
62.25	-9.82
62.28	-9.72
62.39	-9.72
62.55	-9.55
62.64	-9.70
62.69	-9.95
62.84	-9.95
62.89	-10.60
62.99	-10.60
63.14	-10.62
63.19	-10.54
63.34	-10.54
63.44	-10.16
63.55	-10.22
63.58	-10.49
63.74	-10.49
63.84	-9.35
63.89	-8.12
63.99	-8.12
64.14	0.00
64.19	0.00
64.28	0.00
64.38	0.00
64.49	0.00
64.58	0.00
64.69	0.00
64.83	0.00
64.88	0.00
64.99	0.00
65.08	0.00
65.24	0.00
65.28	0.00
65.44	0.00
65.49	0.00
65.58	0.00
65.67	0.00
65.78	0.00
65.88	0.00
65.99	0.00
66.08	0.00
66.24	0.00
66.28	0.00
66.38	0.00
66.49	0.00
66.64	0.00
66.67	0.00
66.78	0.00
66.88	0.00
66.99	0.00
67.14	0.00
67.17	0.00
67.27	0.00
67.38	0.00
67.47	0.00
67.58	0.00
67.72	0.00
67.83	0.00
67.88	0.00
68.03	0.00
68.13	0.00
68.17	0.00
68.33	0.00
68.42	0.00
68.53	0.00
68.63	0.00
68.72	0.00
68.83	0.00
68.88	0.00
69.03	0.00
69.13	0.00
69.17	0.00
69.27	0.00
69.38	0.00
69.47	0.00
69.56	0.00
69.67	0.00
69.83	0.00
69.88	0.00
70.03	0.00
70.06	0.00
70.22	0.00
70.27	0.00
70.42	0.00
70.47	0.00
70.56	0.00
70.72	0.00
70.81	0.00
70.86	0.00
70.97	0.00
71.06	0.00
71.22	0.00
71.27	0.00
71.36	0.00
71.47	0.00
71.56	0.00
71.72	0.00
71.77	0.00

Channel 1: Max.=1.13[N],Min.=-25.74[N],Avg.=9.86[N]
