			Data Report


Test Item:1.15   Test Times:4
Test Date:2018-1-11 
Channel 1:
Range:100[N],Up.:0.00,Low.:100.00,Com.:100.00,Sense.:0.00,GravityAcceleration:9.800
Time[s]	Channel 1 [N]	
0.06	0.00
0.16	0.00
0.27	0.00
0.36	0.00
0.47	0.00
0.56	0.00
0.72	0.00
0.81	0.00
0.92	0.00
0.97	0.00
1.06	0.00
1.22	0.00
1.27	0.00
1.42	0.00
1.52	0.00
1.61	0.00
1.66	0.00
1.77	0.00
1.86	0.00
2.02	0.00
2.11	0.00
2.22	0.00
2.27	0.00
2.42	0.00
2.52	0.00
2.56	0.00
2.66	0.00
2.81	0.00
2.86	0.00
2.95	0.00
3.11	0.00
3.16	0.00
3.31	0.00
3.41	0.00
3.45	0.00
3.55	0.00
3.66	0.00
3.81	0.00
3.86	0.00
4.00	0.00
4.05	0.00
4.20	0.00
4.25	0.00
4.36	0.00
4.45	0.00
4.61	0.00
4.70	0.00
4.75	0.00
4.91	0.00
5.00	0.00
5.05	0.00
5.20	0.00
5.31	0.00
5.34	0.00
5.50	0.00
5.61	0.00
5.66	0.00
5.75	0.00
5.91	0.00
5.95	-23.86
6.09	-23.86
6.14	-25.48
6.30	-25.48
6.34	-22.26
6.50	-22.26
6.55	-19.98
6.70	-19.98
6.80	-19.34
6.91	-19.07
6.94	-18.86
7.05	-18.86
7.14	-19.34
7.30	-19.85
7.41	-19.96
7.50	-20.09
7.55	-20.14
7.70	-20.14
7.75	-20.10
7.84	-20.10
7.94	-20.22
8.05	-20.19
8.20	-20.13
8.23	-19.79
8.41	-19.79
8.44	-19.68
8.55	-19.68
8.70	-19.43
8.73	-19.34
8.84	-19.34
8.94	-19.35
9.09	-19.36
9.19	-19.05
9.30	-19.17
9.34	-19.30
9.44	-19.30
9.59	-19.26
9.64	-19.24
9.80	-19.24
9.84	-19.08
9.94	-19.08
10.03	-19.34
10.14	-19.62
10.23	-19.74
10.39	-17.80
10.44	-12.58
10.53	-12.58
10.64	-13.28
10.73	-14.32
10.89	-14.10
10.94	-13.60
11.03	-13.60
11.14	-13.16
11.30	-12.04
11.39	-11.61
11.44	-11.46
11.59	-11.46
11.69	-11.37
11.73	-11.11
11.89	-11.11
11.98	-10.80
12.03	-10.33
12.19	-10.33
12.28	-10.91
12.33	-11.06
12.48	-11.06
12.58	-11.31
12.63	-11.35
12.73	-11.35
12.88	-11.31
12.92	-11.02
13.03	-11.02
13.13	-11.12
13.28	-11.02
13.33	-11.21
13.48	-11.21
13.58	-11.44
13.63	-11.60
13.72	-11.60
13.83	-11.56
13.92	-11.16
14.03	-10.87
14.19	-10.76
14.22	-10.73
14.33	-10.73
14.42	-10.79
14.58	-10.73
14.63	-10.61
14.72	-10.61
14.88	-10.69
14.92	-10.85
15.02	-10.85
15.19	-16.90
15.22	-23.12
15.38	-23.12
15.42	-23.65
15.58	-23.65
15.63	-20.80
15.72	-20.80
15.88	-20.83
15.97	-20.79
16.02	-20.64
16.13	-20.64
16.27	-20.19
16.31	-19.43
16.42	-19.43
16.52	-18.76
16.63	-18.55
16.72	-18.22
16.81	-18.18
16.92	-18.00
17.02	-17.86
17.13	-17.74
17.27	-17.58
17.31	-17.48
17.42	-17.48
17.52	-17.33
17.61	-17.21
17.77	-17.16
17.88	-17.26
17.92	-17.36
18.02	-17.36
18.17	-17.31
18.22	-17.08
18.31	-17.08
18.41	-17.07
18.56	-17.18
18.61	-17.70
18.72	-17.70
18.81	-17.72
18.97	-17.90
19.06	-18.53
19.17	-18.31
19.22	-17.96
19.31	-17.96
19.41	-18.30
19.52	-18.27
19.61	-18.15
19.70	-18.25
19.86	-18.19
19.97	-16.90
20.06	-17.38
20.11	-17.56
20.27	-17.56
20.36	-13.44
20.41	-14.36
20.56	-14.36
20.61	-15.29
20.77	-15.29
20.81	-6.45
20.91	-6.45
21.00	-6.16
21.11	-6.94
21.27	-7.82
21.36	-10.23
21.47	-11.16
21.50	-11.35
21.61	-11.35
21.70	-11.10
21.80	-10.99
21.95	-11.09
22.00	-11.31
22.11	-11.31
22.25	-11.33
22.30	-11.44
22.41	-11.44
22.50	-11.39
22.66	-11.46
22.70	-11.09
22.80	-11.09
22.91	-10.91
23.00	-10.90
23.09	-11.06
23.25	-10.93
23.30	-10.63
23.41	-10.63
23.56	-10.63
23.59	-10.73
23.75	-10.73
23.86	-10.66
23.91	-10.67
24.06	-10.67
24.16	-10.59
24.25	-10.27
24.30	-10.07
24.45	-10.07
24.56	-10.02
24.59	-10.17
24.70	-10.17
24.80	-10.34
24.89	-10.61
25.00	-12.70
25.09	-20.68
25.25	-24.14
25.34	-26.79
25.39	-29.50
25.55	-29.50
25.64	-31.01
25.69	-31.29
25.84	-31.29
25.95	-32.01
26.05	-31.97
26.09	-31.36
26.25	-31.36
26.34	-30.75
26.45	-30.41
26.49	-29.65
26.64	-29.65
26.75	-28.10
26.80	-27.55
26.95	-27.55
27.05	-26.53
27.09	-26.09
27.19	-26.09
27.30	-25.83
27.39	-25.59
27.49	-26.17
27.59	-26.45
27.69	-26.09
27.78	-25.80
27.95	-25.21
27.99	-23.48
28.09	-23.48
28.24	-22.82
28.28	-22.65
28.39	-22.65
28.49	-22.40
28.58	-22.19
28.69	-22.49
28.84	-23.04
28.89	-26.34
29.03	-26.34
29.14	-26.41
29.19	-26.33
29.34	-26.33
29.39	-27.50
29.49	-27.50
29.58	-27.40
29.69	-27.72
29.78	-28.53
29.94	-28.79
29.99	-28.98
30.08	-28.98
30.19	-28.95
30.28	-28.47
30.38	-28.14
30.49	-27.93
30.64	-27.41
30.74	-26.05
30.78	-24.85
30.94	-24.85
31.03	-16.74
31.14	-14.73
31.17	-13.89
31.28	-13.89
31.42	-14.29
31.49	-15.15
31.63	-15.15
31.67	-14.52
31.78	-14.52
31.88	-15.18
31.99	-15.56
32.13	-17.30
32.17	-18.95
32.28	-18.95
32.44	-19.16
32.47	-19.46
32.63	-19.46
32.74	-19.48
32.78	-19.65
32.88	-19.65
32.97	-19.76
33.08	-19.67
33.24	-19.90
33.28	-19.49
33.38	-19.49
33.47	-19.39
33.58	-19.00
33.74	-18.81
33.77	-18.17
33.92	-18.17
33.97	-17.53
34.13	-17.53
34.17	-17.93
34.27	-17.93
34.38	-17.99
34.47	-18.08
34.63	-18.16
34.67	-18.24
34.83	-18.24
34.92	-16.82
34.97	-16.94
35.13	-16.94
35.22	-17.13
35.27	-16.74
35.38	-16.74
35.52	-15.21
35.63	-15.25
35.67	-14.93
35.83	-14.93
35.92	-12.61
35.97	-12.39
36.13	-12.39
36.22	-12.20
36.27	-11.15
36.42	-11.15
36.52	-10.25
36.56	-10.32
36.67	-10.32
36.83	-10.89
36.86	-11.20
37.02	-11.20
37.13	-11.37
37.16	-11.14
37.27	-11.14
37.42	-10.76
37.47	-10.83
37.63	-10.83
37.66	-10.81
37.77	-10.81
37.91	-11.14
37.95	-10.90
38.11	-10.90
38.16	-10.99
38.27	-10.99
38.41	-10.92
38.45	-10.99
38.56	-10.99
38.72	-11.19
38.77	-11.32
38.86	-11.32
39.02	-11.27
39.11	-11.24
39.16	-11.16
39.27	-11.16
39.41	-11.22
39.45	-11.18
39.56	-11.18
39.66	-11.10
39.75	-10.93
39.91	-10.85
39.95	-10.80
40.11	-10.80
40.16	-11.05
40.25	-11.05
40.41	-11.16
40.45	-11.14
40.55	-11.14
40.66	-11.06
40.75	-10.90
40.86	-10.94
40.95	-10.88
41.11	-10.86
41.20	-10.93
41.30	-11.19
41.36	-11.25
41.50	-11.25
41.55	-11.35
41.70	-11.35
41.80	-11.36
41.84	-11.28
41.95	-11.28
42.05	-11.21
42.16	-11.18
42.25	-11.28
42.34	-12.88
42.45	-16.06
42.55	-15.96
42.70	-15.47
42.80	-14.50
42.84	-14.12
43.00	-14.12
43.05	-13.91
43.20	-13.91
43.25	-13.84
43.34	-13.84
43.45	-13.83
43.61	-13.99
43.70	-14.70
43.80	-14.71
43.84	-14.74
43.94	-14.74
44.11	-15.23
44.14	-15.25
44.25	-15.25
44.39	-14.94
44.44	-14.57
44.55	-14.57
44.69	-14.10
44.75	-13.88
44.84	-13.88
44.94	-13.73
45.09	-13.64
45.19	-13.64
45.30	-14.31
45.34	-16.37
45.44	-16.37
45.55	-16.35
45.69	-16.04
45.74	-16.49
45.84	-16.49
46.00	-16.86
46.03	-17.65
46.19	-17.65
46.24	-18.71
46.34	-18.71
46.44	-18.88
46.53	-18.80
46.69	-18.86
46.74	-19.07
46.84	-19.07
46.94	-19.19
47.09	-19.04
47.19	-18.67
47.24	-18.61
47.33	-18.61
47.50	-18.29
47.53	-18.75
47.69	-18.75
47.78	-18.35
47.83	-18.39
47.99	-18.39
48.09	-19.25
48.14	-18.68
48.24	-18.68
48.33	-18.72
48.44	-18.89
48.59	-19.56
48.69	-19.83
48.78	-20.36
48.83	-20.76
48.99	-20.76
49.09	-19.92
49.13	-19.80
49.24	-19.80
49.39	-19.46
49.44	-19.20
49.53	-19.20
49.63	-19.02
49.78	-18.69
49.89	-18.57
49.99	-18.50
50.03	-18.16
50.13	-18.16
50.24	-16.98
50.39	-16.97
50.42	-17.02
50.59	-17.02
50.67	-16.28
50.72	-15.19
50.88	-15.19
50.92	-16.23
51.03	-16.23
51.13	-16.38
51.22	-16.60
51.33	-16.74
51.49	-16.75
51.53	-16.65
51.67	-16.65
51.78	-16.84
51.83	-16.76
51.92	-16.76
52.08	-16.53
52.13	-16.33
52.28	-16.33
52.38	-23.05
52.42	-22.91
52.58	-22.91
52.67	-23.24
52.72	-24.69
52.83	-24.69
52.99	-27.92
53.08	-27.81
53.13	-29.02
53.22	-29.02
53.31	-29.59
53.49	-29.88
53.52	-30.45
53.67	-30.45
53.78	-30.23
53.81	-29.48
53.97	-29.48
54.02	-28.13
54.11	-28.13
54.22	-27.43
54.38	-27.05
54.42	-26.11
54.52	-26.11
54.67	-26.03
54.72	-25.66
54.81	-25.66
54.92	-25.06
55.02	-24.47
55.11	-23.64
55.27	-20.36
55.31	-12.23
55.41	-12.23
55.52	-11.68
55.61	-12.04
55.77	-12.14
55.88	-11.03
55.91	-10.47
56.02	-10.47
56.17	-9.61
56.20	-9.30
56.31	-9.30
56.41	-10.37
56.52	-10.65
56.67	-10.56
56.70	-10.13
56.86	-10.13
56.97	-7.62
57.02	-7.76
57.16	-7.76
57.27	-7.61
57.31	-7.42
57.45	-7.42
57.56	-5.10
57.66	0.00
57.70	0.00
57.81	0.00
57.95	0.00
58.00	0.00
58.11	0.00
58.20	0.00
58.31	0.00
58.41	0.00
58.56	0.00
58.66	0.00
58.70	0.00
58.86	0.00
58.95	0.00
59.00	0.00
59.11	0.00
59.20	0.00
59.30	0.00
59.41	0.00
59.50	0.00
59.61	0.00
59.77	0.00
59.86	0.00
59.91	0.00
60.05	0.00
60.16	0.00
60.20	0.00
60.30	0.00
60.45	0.00
60.50	0.00
60.66	0.00
60.75	0.00
60.86	0.00
60.89	0.00
61.05	0.00
61.16	0.00
61.20	0.00
61.34	0.00
61.45	0.00
61.50	0.00
61.59	0.00
61.75	0.00
61.80	0.00
61.89	0.00
62.00	0.00
62.09	0.00
62.19	0.00
62.36	0.00
62.39	0.00

Channel 1: Max.=0.00[N],Min.=-32.01[N],Avg.=14.07[N]
