			Data Report


Test Item:1.15.17   Test Times:1
Test Date:2018-1-11 
Channel 1:
Range:100[N],Up.:0.00,Low.:100.00,Com.:100.00,Sense.:0.00,GravityAcceleration:9.800
Time[s]	Channel 1 [N]	
0.06	0.00
0.17	0.00
0.27	0.00
0.42	0.00
0.52	0.00
0.63	0.00
0.67	0.00
0.83	0.00
0.92	0.00
0.97	0.00
1.13	0.00
1.16	0.00
1.27	0.00
1.36	0.00
1.47	0.00
1.56	0.00
1.72	0.00
1.81	0.00
1.86	0.00
1.97	0.00
2.06	0.00
2.22	0.00
2.27	0.00
2.36	0.00
2.52	0.00
2.56	0.00
2.72	0.00
2.77	0.00
2.86	0.00
3.02	0.00
3.11	0.00
3.16	0.00
3.31	0.00
3.36	0.00
3.45	0.00
3.56	0.00
3.72	0.00
3.75	0.00
3.91	0.00
3.95	0.00
4.11	0.00
4.22	0.00
4.25	0.00
4.36	0.00
4.52	0.00
4.61	0.00
4.66	0.00
4.81	0.00
4.86	0.00
4.95	0.00
5.11	0.00
5.20	-2.17
5.25	-7.15
5.36	-7.15
5.50	-12.23
5.55	-13.27
5.66	-13.27
5.75	-13.02
5.84	-12.51
6.00	-11.99
6.11	-10.96
6.16	-10.40
6.25	-10.40
6.34	-10.12
6.45	-10.09
6.55	-10.26
6.66	-10.40
6.75	-10.40
6.84	-10.52
6.95	-10.62
7.05	-10.86
7.14	-10.81
7.25	-10.73
7.34	-11.17
7.50	-10.99
7.61	-1.24
7.70	0.00
7.75	0.00
7.84	0.00
8.00	0.00
8.05	0.00
8.20	0.00
8.30	-2.16
8.34	-7.43
8.50	-7.43
8.59	-11.44
8.64	-11.45
8.80	-11.45
8.84	-12.31
8.94	-12.31
9.05	-12.15
9.20	-11.98
9.23	-11.21
9.34	-11.21
9.50	-10.86
9.55	-10.63
9.64	-10.63
9.73	-10.84
9.89	-10.67
9.94	-10.75
10.09	-10.75
10.14	-10.78
10.30	-10.78
10.39	-10.49
10.50	-10.32
10.53	-10.11
10.70	-10.11
10.80	-9.79
10.84	-9.73
10.94	-9.73
11.09	-9.65
11.14	-9.59
11.28	-9.59
11.39	-9.66
11.44	-9.61
11.53	-9.61
11.64	-9.66
11.73	-9.60
11.89	-9.55
11.98	-9.03
12.03	-8.65
12.19	-8.65
12.28	-8.43
12.39	-8.35
12.44	-8.52
12.53	-8.52
12.63	-8.71
12.78	-9.00
12.83	-8.90
12.98	-8.90
13.03	-8.26
13.13	-8.26
13.28	-7.80
13.39	-7.57
13.44	-7.61
13.59	-7.61
13.69	-7.90
13.73	-8.07
13.83	-8.07
13.92	-8.15
14.03	-8.06
14.19	-8.09
14.28	-8.22
14.33	-8.54
14.42	-8.54
14.58	-8.67
14.63	-9.16
14.73	-9.16
14.83	-11.20
14.98	-15.29
15.08	-17.29
15.17	-16.57
15.22	-15.80
15.38	-15.80
15.42	-14.75
15.53	-14.75
15.63	-14.40
15.72	-14.30
15.83	-14.17
15.92	-13.77
16.03	-13.58
16.17	-13.48
16.22	-12.82
16.33	-12.82
16.42	-12.95
16.52	-13.35
16.67	-14.62
16.78	-15.60
16.83	-16.69
16.99	-16.69
17.08	-18.66
17.13	-19.18
17.22	-19.18
17.38	-19.88
17.42	-19.48
17.52	-19.48
17.63	-18.79
17.72	-18.69
17.88	-18.56
17.97	-18.32
18.02	-18.73
18.17	-18.73
18.22	-18.81
18.38	-18.81
18.42	-19.02
18.58	-19.02
18.67	-19.10
18.72	-18.87
18.88	-18.87
18.97	-18.48
19.02	-18.26
19.11	-18.26
19.27	-18.09
19.31	-17.78
19.42	-17.78
19.52	-16.44
19.67	-12.33
19.72	-7.95
19.88	-7.95
19.91	-7.94
20.02	-7.94
20.17	-6.37
20.22	-6.17
20.31	-6.17
20.47	-6.18
20.58	-7.01
20.61	-6.70
20.70	-6.70
20.86	-7.05
20.91	-7.38
21.02	-7.38
21.11	-7.98
21.20	-8.49
21.36	-8.88
21.47	-9.10
21.56	-9.04
21.61	-9.35
21.77	-9.35
21.86	-9.75
21.91	-10.02
22.00	-10.02
22.11	-9.91
22.27	-9.93
22.36	-9.55
22.47	-9.52
22.50	-9.34
22.61	-9.34
22.70	-9.28
22.86	-9.08
22.97	-8.93
23.06	-8.88
23.11	-8.80
23.20	-8.80
23.30	-8.87
23.47	-8.79
23.50	-8.60
23.61	-8.60
23.70	-8.50
23.80	-8.42
23.91	-8.65
24.00	-8.85
24.11	-9.12
24.20	-9.92
24.30	-18.81
24.45	-24.01
24.50	-26.23
24.66	-26.23
24.75	-25.29
24.80	-24.35
24.95	-24.35
25.05	-19.49
25.16	-19.03
25.25	-18.96
25.36	-19.08
25.41	-19.53
25.50	-19.53
25.59	-19.61
25.75	-19.28
25.86	-18.68
25.95	-18.55
26.00	-18.45
26.16	-18.45
26.25	-18.71
26.30	-18.87
26.45	-18.87
26.55	-24.71
26.66	-31.07
26.69	-31.12
26.80	-31.12
26.89	-30.92
27.05	-29.11
27.09	-27.29
27.25	-27.29
27.34	-28.22
27.39	-28.72
27.55	-28.72
27.59	-29.52
27.75	-29.52
27.84	-29.72
27.94	-31.64
27.99	-31.37
28.14	-31.37
28.25	-30.54
28.30	-30.36
28.39	-30.36
28.55	-30.32
28.59	-29.90
28.69	-29.90
28.80	-29.93
28.94	-29.21
28.99	-27.65
29.09	-27.65
29.19	-25.37
29.34	-24.11
29.44	-24.11
29.49	-24.38
29.64	-24.38
29.75	-25.38
29.84	-15.77
29.89	-12.72
30.05	-12.72
30.14	-15.89
30.19	-17.23
30.34	-17.23
30.44	-17.42
30.49	-17.44
30.58	-17.44
30.74	-17.48
30.78	-19.56
30.94	-19.56
31.03	-20.25
31.08	-20.57
31.19	-20.57
31.34	-20.20
31.38	-20.15
31.53	-20.15
31.64	-19.30
31.69	-19.31
31.83	-19.31
31.94	-19.27
31.99	-19.31
32.08	-19.31
32.24	-19.16
32.28	-19.68
32.44	-19.68
32.53	-29.28
32.58	-31.06
32.74	-31.06
32.78	-31.67
32.88	-31.67
33.03	-32.31
33.08	-34.61
33.24	-34.61
33.28	-31.36
33.38	-31.36
33.53	-29.02
33.58	-27.36
33.74	-27.36
33.83	-26.62
33.88	-26.38
34.03	-26.38
34.08	-25.89
34.24	-25.89
34.33	-36.82
34.42	-39.03
34.47	-38.96
34.58	-38.96
34.67	-37.19
34.77	-36.51
34.88	-39.37
34.97	-41.29
35.13	-40.29
35.17	-41.58
35.33	-41.58
35.38	-42.30
35.53	-42.30
35.63	-52.71
35.74	-55.28
35.77	-53.83
35.92	-53.83
36.03	-50.69
36.06	-50.54
36.24	-50.54
36.27	-50.17
36.38	-50.17
36.47	-52.82
36.63	-55.74
36.67	-57.34
36.81	-57.34
36.88	-60.87
37.02	-60.87
37.13	-52.97
37.22	-51.35
37.27	-50.32
37.42	-50.32
37.47	-48.81
37.56	-48.81
37.67	-47.42
37.77	-33.04
37.86	-17.31
38.02	-15.48
38.13	-14.10
38.16	-13.17
38.27	-13.17
38.36	-13.44
38.47	-13.89
38.63	-14.31
38.72	-14.49
38.77	-13.75
38.92	-13.75
39.02	-12.65
39.06	-13.09
39.22	-13.09
39.31	-13.78
39.42	-13.83
39.45	-13.66
39.56	-13.66
39.72	-13.61
39.77	-12.75
39.91	-12.75
39.95	-10.43
40.06	-10.43
40.16	-10.66
40.31	-11.16
40.36	-11.29
40.45	-11.29
40.61	-11.44
40.66	-11.19
40.81	-11.19
40.91	-11.07
40.95	-10.92
41.11	-10.92
41.20	-10.02
41.25	-10.25
41.41	-10.25
41.52	-10.29
41.55	-10.09
41.66	-10.09
41.81	-10.07
41.86	-9.42
42.02	-9.42
42.11	-7.22
42.20	-6.34
42.25	-4.41
42.41	-4.41
42.52	-2.97
42.55	-2.84
42.66	-2.84
42.81	-3.23
42.84	-4.12
43.00	-4.12
43.05	-3.72
43.20	-3.72
43.30	-3.46
43.41	-2.73
43.45	-2.97
43.55	-2.97
43.64	-4.08
43.80	-5.79
43.91	-20.45
44.00	-24.74
44.05	-25.56
44.14	-25.56
44.25	-24.11
44.41	-22.82
44.45	-22.71
44.55	-22.71
44.64	-21.68
44.80	-20.26
44.91	-18.65
45.00	-18.41
45.05	-17.15
45.20	-17.15
45.30	-17.00
45.34	-19.33
45.44	-19.33
45.55	-20.99
45.64	-21.87
45.80	-21.67
45.91	-21.42
45.94	-20.97
46.05	-20.97
46.19	-19.96
46.24	-18.16
46.34	-18.16
46.50	-16.28
46.55	-16.18
46.64	-16.18
46.80	-16.52
46.84	-15.97
46.94	-15.97
47.09	-15.63
47.14	-15.62
47.24	-15.62
47.34	-15.84
47.50	-16.16
47.53	-16.97
47.64	-16.97
47.80	-17.06
47.84	-19.39
48.00	-19.39
48.09	-20.80
48.14	-21.65
48.30	-21.65
48.33	-21.87
48.50	-21.87
48.59	-22.63
48.64	-22.86
48.74	-22.86
48.89	-22.96
48.94	-22.38
49.09	-22.38
49.14	-21.34
49.24	-21.34
49.39	-20.48
49.49	-19.44
49.53	-18.85
49.69	-18.85
49.74	-18.10
49.89	-18.10
49.94	-17.90
50.08	-17.90
50.19	-21.38
50.24	-21.12
50.39	-21.12
50.49	-20.89
50.58	-19.88
50.63	-17.62
50.74	-17.62
50.83	-17.82
50.92	-18.04
51.08	-17.49
51.19	-16.23
51.24	-13.09
51.33	-13.09
51.42	-8.55
51.53	-8.59
51.69	-9.16
51.78	-3.88
51.83	-4.11
51.92	-4.11
52.08	-6.56
52.13	-6.29
52.22	-6.29
52.39	-6.66
52.49	-7.03
52.53	2.31
52.63	2.31
52.78	0.00
52.83	0.00
52.97	0.00
53.08	0.00
53.17	0.00
53.22	0.00
53.33	0.00
53.42	0.00
53.52	0.00
53.67	0.00
53.78	0.00
53.83	0.00
53.92	0.00
54.08	0.00
54.13	0.00
54.22	0.00
54.38	0.00
54.42	0.00
54.58	0.00
54.67	0.00
54.72	0.00
54.81	0.00
54.92	0.00
55.02	0.00
55.13	0.00
55.28	0.00
55.31	0.00
55.42	0.00
55.58	0.00
55.67	0.00
55.72	0.00
55.86	0.00
55.97	0.00
56.02	0.00
56.11	0.00
56.22	0.00
56.38	0.00
56.47	0.00
56.56	0.00
56.61	0.00
56.72	0.00
56.81	0.00
56.97	0.00
57.06	0.00
57.17	0.00
57.22	0.00
57.31	0.00
57.41	0.00
57.56	0.00
57.61	0.00
57.70	0.00
57.81	0.00
57.97	0.00
58.06	0.00

Channel 1: Max.=2.31[N],Min.=-60.87[N],Avg.=14.37[N]
