			Data Report


Test Item:1.15   Test Times:1
Test Date:2018-1-11 
Channel 1:
Range:100[N],Up.:0.00,Low.:100.00,Com.:100.00,Sense.:0.00,GravityAcceleration:9.800
Time[s]	Channel 1 [N]	
0.05	0.00
0.16	0.00
0.20	0.00
0.30	0.00
0.39	0.00
0.50	0.00
0.59	0.00
0.69	0.00
0.86	0.00
0.89	0.00
1.05	0.00
1.09	0.00
1.19	0.00
1.30	0.00
1.44	0.00
1.50	0.00
1.59	0.00
1.69	0.00
1.84	0.00
1.94	0.00
1.98	0.00
2.09	0.00
2.19	0.00
2.34	0.00
2.44	0.00
2.55	0.00
2.59	0.00
2.75	0.00
2.84	0.00
2.89	0.00
3.05	0.00
3.14	0.00
3.25	0.00
3.28	0.00
3.39	0.00
3.55	0.00
3.59	0.00
3.69	0.00
3.84	0.00
3.89	0.00
3.98	0.00
4.14	0.00
4.19	0.00
4.34	0.00
4.39	0.00
4.48	0.00
4.64	0.00
4.69	0.00
4.78	0.00
4.94	0.00
4.98	0.00
5.14	0.00
5.19	0.00
5.28	0.00
5.38	0.00
5.48	0.00
5.64	-1.00
5.69	-5.05
5.83	-5.05
5.94	-8.78
5.98	-8.97
6.14	-8.97
6.23	-9.48
6.28	-9.68
6.44	-9.68
6.53	-9.91
6.58	-10.10
6.67	-10.10
6.78	-10.33
6.88	-10.12
6.98	-9.74
7.08	-9.58
7.23	-9.53
7.28	-9.35
7.44	-9.35
7.53	-9.21
7.58	-5.89
7.73	-5.89
7.78	-7.34
7.88	-7.34
8.03	-9.11
8.13	-6.37
8.17	-6.88
8.28	-6.88
8.42	-9.31
8.47	-12.42
8.58	-12.42
8.67	-11.72
8.83	-11.47
8.92	-11.61
8.97	-11.27
9.13	-11.27
9.23	-11.03
9.27	-10.69
9.38	-10.69
9.53	-10.39
9.56	-10.59
9.73	-10.59
9.77	-10.71
9.88	-10.71
9.97	-10.51
10.13	-10.17
10.23	-10.09
10.27	-10.16
10.42	-10.16
10.53	-10.44
10.56	-10.43
10.72	-10.43
10.81	-10.20
10.86	-10.14
10.97	-10.14
11.13	-10.15
11.17	-10.24
11.27	-10.24
11.42	-10.33
11.47	-10.48
11.63	-10.48
11.72	-10.20
11.77	-10.13
11.92	-10.13
12.02	-10.40
12.06	-10.41
12.22	-10.41
12.31	-10.32
12.36	-10.28
12.47	-10.28
12.63	-10.29
12.72	-10.90
12.77	-15.76
12.86	-15.76
12.95	-18.63
13.06	-18.51
13.22	-18.50
13.27	-16.55
13.36	-16.55
13.45	-15.84
13.56	-15.47
13.66	-17.52
13.77	-20.68
13.86	-20.81
13.95	-20.45
14.11	-19.55
14.16	-18.50
14.31	-18.50
14.41	-17.78
14.45	-17.49
14.56	-17.49
14.66	-17.18
14.75	-17.02
14.91	-17.06
15.02	-17.19
15.11	-17.14
15.16	-17.25
15.25	-17.25
15.36	-17.89
15.52	-18.13
15.61	-18.05
15.70	-18.21
15.75	-18.59
15.91	-18.59
15.95	-18.05
16.11	-18.05
16.16	-18.35
16.31	-18.35
16.34	-18.83
16.52	-18.83
16.61	-19.25
16.70	-19.30
16.75	-19.07
16.84	-19.07
16.95	-19.45
17.09	-19.71
17.20	-19.80
17.25	-19.88
17.41	-19.88
17.50	-19.98
17.55	-20.27
17.70	-20.27
17.80	-19.83
17.84	-19.77
17.95	-19.77
18.05	-19.44
18.14	-19.18
18.30	-18.94
18.41	-18.85
18.44	-18.95
18.55	-18.95
18.70	-18.80
18.75	-18.74
18.84	-18.74
19.00	-18.59
19.09	-18.52
19.14	-18.60
19.30	-18.60
19.41	-18.58
19.44	-18.57
19.55	-18.57
19.64	-18.74
19.80	-19.00
19.91	-19.46
20.00	-19.60
20.05	-19.77
20.19	-19.77
20.30	-20.12
20.34	-19.92
20.44	-19.92
20.55	-19.72
20.64	-19.57
20.80	-19.44
20.89	-19.08
20.94	-19.07
21.03	-19.07
21.14	-18.80
21.23	-18.65
21.39	-18.61
21.50	-18.43
21.59	-14.96
21.64	-12.56
21.80	-12.56
21.89	-12.84
21.94	-12.45
22.09	-12.45
22.19	-11.90
22.30	-12.23
22.33	-12.28
22.44	-12.28
22.53	-12.23
22.64	-12.25
22.73	-11.81
22.89	-11.32
22.94	-11.21
23.03	-11.21
23.14	-11.13
23.23	-10.71
23.39	-10.10
23.48	-10.30
23.53	-10.37
23.63	-10.37
23.73	-10.51
23.83	-10.57
23.98	-10.73
24.08	-10.82
24.13	-10.69
24.23	-10.69
24.33	-10.67
24.48	-10.71
24.53	-10.57
24.69	-10.57
24.78	-13.59
24.83	-20.02
24.98	-20.02
25.08	-25.44
25.13	-25.45
25.28	-25.45
25.39	-25.95
25.42	-25.93
25.53	-25.93
25.69	-25.37
25.72	-25.67
25.89	-25.67
25.98	-25.01
26.03	-24.47
26.13	-24.47
26.28	-22.72
26.33	-21.82
26.42	-21.82
26.58	-21.11
26.63	-20.53
26.72	-20.53
26.83	-20.60
26.92	-20.48
27.02	-20.39
27.17	-20.10
27.22	-19.87
27.38	-19.87
27.47	-19.73
27.52	-19.64
27.63	-19.64
27.72	-19.65
27.83	-19.60
27.97	-19.63
28.08	-19.81
28.17	-19.83
28.22	-19.89
28.31	-19.89
28.47	-19.83
28.52	-19.70
28.67	-19.70
28.78	-19.51
28.81	-19.54
28.92	-19.54
29.02	-19.51
29.17	-19.38
29.22	-19.27
29.38	-19.27
29.47	-18.15
29.52	-12.59
29.67	-12.59
29.72	-9.89
29.86	-9.89
29.97	-10.44
30.06	-10.64
30.11	-10.47
30.22	-10.47
30.31	-10.50
30.47	-10.55
30.52	-10.40
30.61	-10.40
30.77	-10.33
30.81	-10.23
30.91	-10.23
31.06	-10.40
31.11	-10.35
31.27	-10.35
31.36	-10.27
31.41	-10.34
31.52	-10.34
31.61	-10.88
31.70	-16.44
31.86	-22.60
31.97	-24.45
32.02	-23.92
32.17	-23.92
32.20	-23.28
32.36	-23.28
32.41	-22.55
32.56	-22.55
32.67	-20.84
32.70	-20.65
32.81	-20.65
32.91	-20.40
33.00	-20.19
33.11	-20.10
33.20	-19.85
33.31	-19.73
33.41	-19.52
33.56	-19.50
33.61	-19.48
33.77	-19.48
33.80	-19.23
33.95	-19.23
34.06	-19.08
34.11	-18.94
34.27	-18.94
34.36	-19.19
34.41	-19.24
34.56	-19.24
34.66	-19.12
34.70	-19.09
34.80	-19.09
34.91	-18.89
35.00	-18.81
35.16	-18.79
35.20	-18.82
35.36	-18.82
35.41	-18.70
35.50	-18.70
35.66	-18.49
35.70	-18.33
35.86	-18.33
35.95	-18.27
36.00	-18.21
36.16	-18.21
36.25	-18.36
36.30	-18.09
36.39	-18.09
36.50	-17.74
36.66	-17.59
36.75	-17.37
36.84	-15.60
36.89	-11.94
37.05	-11.94
37.16	-8.08
37.19	-8.27
37.30	-8.27
37.45	-8.47
37.50	-8.51
37.59	-8.51
37.69	-8.53
37.80	-8.84
37.89	-9.09
37.98	-9.16
38.09	-9.25
38.19	-9.22
38.34	-9.83
38.45	-10.98
38.48	-10.82
38.59	-10.82
38.69	-10.49
38.80	-10.49
38.95	-10.39
39.05	-10.34
39.09	-10.23
39.23	-10.23
39.34	-10.23
39.39	-10.66
39.55	-10.66
39.64	-34.11
39.69	-37.21
39.84	-37.21
39.89	-38.16
39.98	-38.16
40.09	-40.64
40.23	-42.39
40.34	-37.00
40.39	-33.67
40.48	-33.67
40.58	-32.38
40.69	-31.82
40.78	-31.05
40.94	-30.04
41.05	-28.73
41.08	-28.13
41.23	-28.13
41.34	-27.25
41.39	-26.89
41.55	-26.89
41.64	-27.26
41.69	-27.14
41.84	-27.14
41.94	-27.10
41.98	-26.58
42.08	-26.58
42.23	-25.04
42.28	-23.92
42.38	-23.92
42.48	-23.81
42.63	-23.73
42.69	-24.24
42.78	-24.24
42.94	-24.28
42.98	-24.24
43.13	-24.24
43.17	-24.55
43.28	-24.55
43.38	-25.33
43.48	-31.99
43.63	-37.54
43.67	-38.32
43.78	-38.32
43.94	-37.34
43.97	-36.68
44.13	-36.68
44.17	-35.77
44.33	-35.77
44.44	-36.61
44.47	-37.30
44.63	-37.30
44.73	-37.45
44.83	-37.67
44.88	-37.68
44.97	-37.68
45.08	-37.92
45.17	-38.31
45.27	-38.56
45.44	-38.65
45.47	-40.62
45.58	-40.62
45.72	-40.33
45.77	-39.35
45.92	-39.35
45.97	-38.60
46.13	-38.60
46.17	-37.88
46.27	-37.88
46.38	-36.96
46.47	-36.69
46.56	-36.07
46.67	-35.20
46.77	-34.70
46.92	-34.70
46.97	-34.62
47.06	-34.62
47.22	-34.50
47.27	-34.24
47.38	-34.24
47.47	-34.31
47.56	-34.55
47.67	-34.73
47.77	-34.97
47.86	-35.29
48.02	-35.49
48.13	-35.95
48.17	-36.19
48.27	-36.19
48.36	-36.41
48.53	-36.22
48.56	-36.28
48.66	-36.28
48.77	-36.29
48.92	-36.05
48.97	-36.71
49.06	-36.71
49.22	-47.64
49.31	-54.93
49.42	-53.74
49.47	-52.90
49.61	-52.90
49.72	-54.61
49.77	-57.02
49.86	-57.02
49.95	-56.11
50.06	-54.20
50.16	-52.06
50.31	-50.18
50.36	-47.40
50.52	-47.40
50.61	-46.68
50.66	-46.34
50.81	-46.34
50.92	-47.33
51.02	-47.38
51.06	-46.77
51.16	-46.77
51.25	-44.94
51.42	-44.62
51.52	-44.30
51.61	-44.18
51.66	-43.96
51.75	-43.96
51.91	-43.44
51.95	-42.38
52.11	-42.38
52.16	-42.54
52.25	-42.54
52.36	-42.54
52.50	-42.55
52.55	-42.85
52.70	-42.85
52.75	-41.72
52.91	-41.72
53.00	-48.31
53.05	-48.37
53.16	-48.37
53.31	-48.28
53.41	-47.86
53.45	-49.12
53.61	-49.12
53.70	-51.97
53.81	-53.86
53.84	-55.37
54.00	-55.37
54.11	-54.59
54.14	-54.57
54.25	-54.57
54.34	-55.43
54.45	-55.61
54.55	-55.79
54.64	-56.50
54.75	-56.93
54.91	-56.40
54.95	-54.15
55.09	-54.15
55.20	-52.88
55.25	-54.39
55.39	-54.39
55.50	-59.52
55.55	-58.38
55.70	-58.38
55.75	-55.70
55.84	-55.70
56.00	-54.79
56.05	-55.55
56.14	-55.55
56.25	-55.42
56.34	-52.70
56.44	-40.51
56.59	-31.13
56.64	-17.66
56.73	-17.66
56.84	-15.24
57.00	-15.58
57.09	-14.53
57.20	-13.83
57.23	-12.57
57.39	-12.57
57.50	-11.76
57.55	-11.47
57.64	-11.47
57.80	-8.21
57.84	-6.93
58.00	-6.93
58.03	-6.16
58.14	-6.16
58.23	-6.64
58.34	-6.58
58.48	-6.13
58.53	-6.19
58.69	-6.19
58.73	-5.11
58.83	-5.11
58.94	-4.48
59.09	-4.28
59.14	-1.15
59.28	-1.15
59.39	1.42
59.44	0.00
59.59	0.00
59.69	0.00
59.73	0.00
59.89	0.00
59.98	0.00
60.03	0.00
60.13	0.00
60.28	0.00
60.33	0.00
60.48	0.00
60.59	0.00
60.63	0.00
60.73	0.00
60.89	0.00
60.94	0.00
61.03	0.00
61.13	0.00
61.23	0.00
61.33	0.00
61.42	0.00
61.53	0.00
61.63	0.00
61.73	0.00
61.88	0.00
61.92	0.00
62.03	0.00
62.19	0.00
62.22	0.00
62.38	0.00
62.42	0.00
62.53	0.00
62.69	0.00
62.72	0.00
62.83	0.00
62.98	0.00
63.03	0.00
63.13	0.00
63.22	0.00
63.38	0.00
63.42	0.00
63.52	0.00
63.63	0.00
63.78	0.00
63.88	0.00
63.98	0.00
64.02	0.00
64.19	0.00
64.28	0.00
64.33	0.00

Channel 1: Max.=1.42[N],Min.=-59.52[N],Avg.=19.31[N]
