			Data Report


Test Item:1.18.5.5   Test Times:1
Test Date:2018-1-9 
Channel 1:
Range:100[N],Up.:0.00,Low.:100.00,Com.:100.00,Sense.:0.00,GravityAcceleration:9.800
Time[s]	Channel 1 [N]	
0.05	0.00
0.14	0.00
0.30	0.00
0.41	0.00
0.50	0.00
0.61	0.00
0.64	0.00
0.80	0.00
0.91	0.00
0.94	0.00
1.05	0.00
1.20	0.00
1.25	0.00
1.34	0.00
1.44	0.00
1.55	0.00
1.70	0.00
1.80	0.00
1.84	0.00
2.00	0.00
2.09	0.00
2.20	0.00
2.23	0.00
2.39	0.00
2.50	0.00
2.53	0.00
2.64	0.00
2.73	0.00
2.84	0.00
3.00	0.00
3.03	0.00
3.14	0.00
3.23	0.00
3.39	0.00
3.44	0.00
3.53	0.00
3.64	0.00
3.73	0.00
3.89	0.00
3.98	0.00
4.03	0.00
4.14	0.00
4.28	0.00
4.33	0.00
4.44	0.00
4.59	0.00
4.64	0.00
4.78	0.00
4.83	-10.15
4.94	-10.15
5.08	-22.19
5.13	-35.11
5.28	-35.11
5.39	-43.51
5.44	-45.52
5.53	-45.52
5.69	-45.91
5.73	-47.30
5.88	-47.30
5.94	-54.00
6.03	-54.00
6.19	-56.15
6.28	-54.86
6.33	-55.04
6.42	-55.04
6.59	-53.65
6.63	-51.81
6.73	-51.81
6.89	-51.84
6.92	-52.02
7.08	-52.02
7.17	-51.70
7.22	-51.79
7.33	-51.79
7.42	-51.49
7.53	-51.27
7.67	-51.07
7.78	-51.01
7.83	-51.15
7.98	-51.15
8.08	-51.13
8.17	-51.61
8.22	-52.05
8.38	-52.05
8.48	-53.87
8.53	-53.57
8.63	-53.57
8.72	-54.26
8.88	-58.48
8.98	-60.40
9.02	-59.73
9.17	-59.73
9.28	-56.39
9.33	-49.46
9.47	-49.46
9.52	-15.88
9.67	-15.88
9.72	-3.08
9.81	-3.08
9.92	1.14
10.08	0.00
10.17	0.00
10.22	0.00
10.31	0.00
10.47	0.00
10.56	0.00
10.61	0.00
10.72	0.00
10.88	0.00
10.92	0.00
11.02	0.00
11.11	-4.75
11.22	-23.45
11.31	-44.77
11.42	-59.99
11.56	-68.49
11.67	-73.63
11.72	-73.95
11.81	-73.95
11.97	-68.02
12.02	-52.96
12.11	-52.96
12.27	-48.70
12.38	-43.09
12.47	-43.83
12.52	-45.09
12.67	-45.09
12.70	-49.50
12.81	-49.50
12.97	-50.79
13.02	-51.48
13.11	-51.48
13.20	-51.51
13.31	-52.08
13.45	-52.87
13.52	-51.95
13.61	-51.95
13.75	-50.88
13.81	-50.42
13.91	-50.42
14.06	-50.68
14.11	-50.90
14.25	-50.90
14.36	-51.14
14.41	-50.93
14.50	-50.93
14.66	-50.54
14.70	-51.01
14.81	-51.01
14.95	-51.87
15.00	-53.53
15.16	-53.53
15.27	-54.77
15.36	-54.56
15.47	-54.36
15.56	-54.20
15.59	-53.94
15.70	-53.94
15.80	-53.77
15.95	-53.62
16.05	-53.66
16.11	-53.98
16.20	-53.98
16.30	-54.50
16.45	-54.90
16.50	-53.91
16.59	-53.91
16.75	-54.89
16.86	-55.44
16.95	-48.88
17.00	-23.98
17.09	-23.98
17.25	-2.86
17.30	0.00
17.39	0.00
17.55	0.00
17.59	0.00
17.75	0.00
17.80	0.00
17.95	0.00
18.00	0.00
18.09	0.00
18.25	0.00
18.34	0.00
18.45	0.00
18.50	0.00
18.66	0.00
18.75	0.00
18.80	0.00
18.94	0.00
19.05	0.00
19.09	0.00
19.19	0.00
19.30	0.00
19.39	0.00
19.55	0.00
19.64	0.00
19.75	0.00
19.80	0.00
19.89	0.00
19.98	0.00
20.14	0.00
20.25	0.00
20.28	0.00
20.44	0.00
20.55	0.00
20.59	0.00
20.73	0.00
20.84	0.00
20.89	0.00
20.98	0.00
21.14	0.00
21.19	0.00
21.28	0.00
21.44	0.00
21.48	0.00
21.58	0.00
21.75	0.00
21.78	0.00
21.89	0.00
22.03	0.00
22.08	0.00

Channel 1: Max.=1.14[N],Min.=-73.95[N],Avg.=24.66[N]
